Experiment	bias spectroscopy	
Date	16.08.2023 15:56:43	
User		
X (m)	-641.772E-9	
Y (m)	623.108E-9	
Z (m)	-127.659E-9	
Z offset (m)	0E+0	
Settling time (s)	100E-6	
Integration time (s)	25E-3	
Z-Ctrl hold	TRUE	
Final Z (m)	N/A	
Filter type	Gaussian	
Order	2	
Cutoff frq		

[DATA]
Bias calc (V)	Current (A)	Lock In X (V)	Lock In Y (V)	Current (A) [filt]	Lock In X (V) [filt]	Lock In Y (V) [filt]
-500.000E-3	-200.874E-12	2.90136E+0	-580.234E-3	-200.874E-12	2.90136E+0	-580.234E-3
-498.000E-3	-202.397E-12	3.02857E+0	-693.685E-3	-196.540E-12	3.03930E+0	-711.763E-3
-496.000E-3	-198.583E-12	3.18150E+0	-861.649E-3	-191.322E-12	3.17360E+0	-833.352E-3
-494.000E-3	-164.312E-12	3.32466E+0	-967.020E-3	-187.371E-12	3.29050E+0	-934.801E-3
-492.000E-3	-195.767E-12	3.41159E+0	-1.02225E+0	-187.801E-12	3.37386E+0	-1.00238E+0
-490.000E-3	-193.518E-12	3.43396E+0	-1.05806E+0	-190.372E-12	3.42040E+0	-1.02838E+0
-488.000E-3	-192.990E-12	3.44058E+0	-1.04608E+0	-192.595E-12	3.44471E+0	-1.01455E+0
-486.000E-3	-190.921E-12	3.45520E+0	-984.574E-3	-183.965E-12	3.46561E+0	-963.480E-3
-484.000E-3	-189.938E-12	3.48961E+0	-892.457E-3	-174.464E-12	3.49038E+0	-884.445E-3
-482.000E-3	-123.755E-12	3.52775E+0	-787.042E-3	-168.593E-12	3.50993E+0	-791.549E-3
-480.000E-3	-186.382E-12	3.53761E+0	-695.261E-3	-171.387E-12	3.51139E+0	-697.405E-3
-478.000E-3	-185.297E-12	3.50068E+0	-600.992E-3	-177.911E-12	3.48943E+0	-612.037E-3
-476.000E-3	-183.464E-12	3.44995E+0	-522.521E-3	-183.536E-12	3.45138E+0	-544.367E-3
-474.000E-3	-182.302E-12	3.40218E+0	-480.377E-3	-181.770E-12	3.41044E+0	-501.277E-3
-472.000E-3	-179.769E-12	3.36886E+0	-468.448E-3	-179.835E-12	3.37712E+0	-485.820E-3
-470.000E-3	-177.449E-12	3.34709E+0	-482.894E-3	-177.949E-12	3.36024E+0	-492.025E-3
-468.000E-3	-176.217E-12	3.33727E+0	-514.055E-3	-176.002E-12	3.36731E+0	-506.400E-3
-466.000E-3	-174.765E-12	3.38445E+0	-531.769E-3	-174.096E-12	3.39734E+0	-516.964E-3
-464.000E-3	-171.204E-12	3.45388E+0	-519.595E-3	-172.281E-12	3.43544E+0	-521.013E-3
-462.000E-3	-170.557E-12	3.49011E+0	-511.374E-3	-170.630E-12	3.45948E+0	-525.876E-3
-460.000E-3	-169.663E-12	3.47570E+0	-529.457E-3	-169.270E-12	3.45564E+0	-539.991E-3
-458.000E-3	-167.521E-12	3.42871E+0	-565.120E-3	-168.026E-12	3.42929E+0	-561.790E-3
-456.000E-3	-167.247E-12	3.38684E+0	-596.405E-3	-159.969E-12	3.39260E+0	-583.549E-3
-454.000E-3	-165.050E-12	3.36167E+0	-598.324E-3	-149.848E-12	3.34544E+0	-607.038E-3
-452.000E-3	-103.744E-12	3.31419E+0	-610.435E-3	-136.486E-12	3.27384E+0	-643.636E-3
-450.000E-3	-151.617E-12	3.19661E+0	-687.968E-3	-122.303E-12	3.16738E+0	-696.866E-3
-448.000E-3	-102.223E-12	3.02870E+0	-783.189E-3	-115.302E-12	3.02524E+0	-750.847E-3
-446.000E-3	-81.6696E-12	2.87642E+0	-819.823E-3	-120.348E-12	2.86022E+0	-787.982E-3
-444.000E-3	-156.730E-12	2.67910E+0	-790.433E-3	-132.314E-12	2.69868E+0	-803.881E-3
-442.000E-3	-155.567E-12	2.50656E+0	-806.405E-3	-146.996E-12	2.57676E+0	-807.378E-3
-440.000E-3	-154.020E-12	2.45235E+0	-822.035E-3	-149.455E-12	2.52770E+0	-802.382E-3
-438.000E-3	-153.544E-12	2.51464E+0	-802.425E-3	-142.044E-12	2.56872E+0	-778.991E-3
-436.000E-3	-108.176E-12	2.65353E+0	-752.304E-3	-136.654E-12	2.67771E+0	-723.477E-3
-434.000E-3	-143.601E-12	2.84473E+0	-653.247E-3	-137.362E-12	2.80676E+0	-641.528E-3
-432.000E-3	-146.239E-12	2.96042E+0	-528.103E-3	-141.410E-12	2.91234E+0	-553.381E-3
-430.000E-3	-147.218E-12	2.99473E+0	-454.386E-3	-145.642E-12	2.97672E+0	-483.073E-3
-428.000E-3	-144.586E-12	3.00916E+0	-421.326E-3	-145.102E-12	3.00697E+0	-446.107E-3
-426.000E-3	-144.373E-12	3.02560E+0	-426.268E-3	-143.889E-12	3.01929E+0	-442.901E-3
-424.000E-3	-142.430E-12	3.03406E+0	-455.941E-3	-142.497E-12	3.01979E+0	-463.148E-3
-422.000E-3	-140.857E-12	3.01692E+0	-494.702E-3	-141.025E-12	3.00870E+0	-495.893E-3
-420.000E-3	-140.087E-12	2.98540E+0	-535.838E-3	-139.398E-12	2.99025E+0	-530.539E-3
-418.000E-3	-137.148E-12	2.96512E+0	-568.771E-3	-137.721E-12	2.97046E+0	-559.425E-3
-416.000E-3	-136.167E-12	2.95638E+0	-585.659E-3	-136.177E-12	2.95091E+0	-578.986E-3
-414.000E-3	-134.427E-12	2.93670E+0	-593.138E-3	-134.869E-12	2.92780E+0	-589.969E-3
-412.000E-3	-133.945E-12	2.90152E+0	-595.661E-3	-133.790E-12	2.89852E+0	-596.012E-3
-410.000E-3	-132.997E-12	2.86144E+0	-599.631E-3	-132.664E-12	2.86585E+0	-599.525E-3
-408.000E-3	-131.317E-12	2.83019E+0	-605.739E-3	-131.409E-12	2.83438E+0	-599.740E-3
-406.000E-3	-130.132E-12	2.80699E+0	-600.650E-3	-130.120E-12	2.80587E+0	-594.351E-3
-404.000E-3	-128.465E-12	2.77937E+0	-585.821E-3	-128.794E-12	2.78041E+0	-581.444E-3
-402.000E-3	-128.174E-12	2.75190E+0	-565.902E-3	-127.412E-12	2.75814E+0	-562.542E-3
-400.000E-3	-125.641E-12	2.73758E+0	-537.495E-3	-125.922E-12	2.73901E+0	-542.398E-3
-398.000E-3	-124.143E-12	2.72484E+0	-519.042E-3	-124.464E-12	2.72117E+0	-527.759E-3
-396.000E-3	-123.144E-12	2.70524E+0	-511.989E-3	-122.968E-12	2.70043E+0	-524.021E-3
-394.000E-3	-121.934E-12	2.67941E+0	-526.085E-3	-121.583E-12	2.67316E+0	-531.545E-3
-392.000E-3	-119.521E-12	2.64304E+0	-549.420E-3	-120.263E-12	2.63882E+0	-544.770E-3
-390.000E-3	-119.131E-12	2.60030E+0	-562.450E-3	-119.089E-12	2.59846E+0	-557.113E-3
-388.000E-3	-118.257E-12	2.55653E+0	-567.033E-3	-118.044E-12	2.55469E+0	-564.539E-3
-386.000E-3	-116.978E-12	2.50688E+0	-568.917E-3	-117.027E-12	2.51086E+0	-568.729E-3
-384.000E-3	-115.946E-12	2.46596E+0	-568.032E-3	-115.849E-12	2.47015E+0	-573.537E-3
-382.000E-3	-114.743E-12	2.43062E+0	-579.562E-3	-114.549E-12	2.43540E+0	-582.104E-3
-380.000E-3	-113.131E-12	2.40107E+0	-592.029E-3	-113.221E-12	2.41018E+0	-594.450E-3
-378.000E-3	-111.635E-12	2.38494E+0	-610.983E-3	-111.986E-12	2.39678E+0	-605.558E-3
-376.000E-3	-110.876E-12	2.38932E+0	-623.968E-3	-110.783E-12	2.39507E+0	-607.136E-3
-374.000E-3	-110.106E-12	2.40184E+0	-606.473E-3	-109.521E-12	2.40186E+0	-595.343E-3
-372.000E-3	-107.809E-12	2.41184E+0	-569.746E-3	-108.171E-12	2.41356E+0	-574.988E-3
-370.000E-3	-106.571E-12	2.42424E+0	-543.035E-3	-106.881E-12	2.42758E+0	-558.458E-3
-368.000E-3	-105.744E-12	2.44465E+0	-541.251E-3	-105.620E-12	2.44110E+0	-555.691E-3
-366.000E-3	-104.939E-12	2.45959E+0	-564.893E-3	-104.545E-12	2.44996E+0	-566.972E-3
-364.000E-3	-102.526E-12	2.45722E+0	-588.196E-3	-103.569E-12	2.45264E+0	-584.485E-3
-362.000E-3	-103.186E-12	2.44538E+0	-606.081E-3	-102.624E-12	2.45079E+0	-599.714E-3
-360.000E-3	-102.145E-12	2.44886E+0	-613.389E-3	-101.569E-12	2.44730E+0	-607.865E-3
-358.000E-3	-100.005E-12	2.44717E+0	-612.658E-3	-100.435E-12	2.44255E+0	-609.732E-3
-356.000E-3	-98.9309E-12	2.43749E+0	-606.152E-3	-99.1140E-12	2.43375E+0	-609.141E-3
-354.000E-3	-98.4153E-12	2.42454E+0	-605.270E-3	-97.7585E-12	2.41711E+0	-610.636E-3
-352.000E-3	-96.1736E-12	2.39956E+0	-613.765E-3	-96.4343E-12	2.39127E+0	-617.131E-3
-350.000E-3	-94.6005E-12	2.36083E+0	-626.070E-3	-95.1950E-12	2.35738E+0	-628.348E-3
-348.000E-3	-94.3345E-12	2.31656E+0	-643.447E-3	-93.7461E-12	2.32015E+0	-640.697E-3
-346.000E-3	-93.3407E-12	2.27797E+0	-656.526E-3	-92.3996E-12	2.28796E+0	-650.298E-3
-344.000E-3	-88.7684E-12	2.25365E+0	-657.605E-3	-91.2687E-12	2.26885E+0	-655.539E-3
-342.000E-3	-91.2321E-12	2.25435E+0	-656.631E-3	-90.4231E-12	2.26478E+0	-655.205E-3
-340.000E-3	-90.6909E-12	2.27387E+0	-657.616E-3	-89.6750E-12	2.27192E+0	-646.826E-3
-338.000E-3	-88.2422E-12	2.28426E+0	-639.823E-3	-88.8909E-12	2.28426E+0	-628.550E-3
-336.000E-3	-87.5573E-12	2.29592E+0	-600.781E-3	-87.7761E-12	2.29692E+0	-603.100E-3
-334.000E-3	-87.3259E-12	2.31150E+0	-567.080E-3	-86.7526E-12	2.30567E+0	-577.448E-3
-332.000E-3	-85.4219E-12	2.31866E+0	-553.400E-3	-85.8193E-12	2.30502E+0	-557.400E-3
-330.000E-3	-84.8178E-12	2.30437E+0	-544.767E-3	-84.8739E-12	2.28926E+0	-544.614E-3
-328.000E-3	-84.0919E-12	2.26474E+0	-531.148E-3	-83.8464E-12	2.25770E+0	-539.029E-3
-326.000E-3	-83.0692E-12	2.21562E+0	-531.641E-3	-82.0565E-12	2.21683E+0	-542.944E-3
-324.000E-3	-81.1927E-12	2.16788E+0	-549.576E-3	-75.3408E-12	2.17649E+0	-562.000E-3
-322.000E-3	-74.0620E-12	2.13482E+0	-582.779E-3	-68.2523E-12	2.14073E+0	-599.086E-3
-320.000E-3	-37.0284E-12	2.11699E+0	-646.909E-3	-64.4998E-12	2.10117E+0	-649.216E-3
-318.000E-3	-76.3491E-12	2.07469E+0	-714.428E-3	-67.0307E-12	2.04721E+0	-700.820E-3
-316.000E-3	-77.1537E-12	1.97624E+0	-757.722E-3	-72.1589E-12	1.97950E+0	-739.839E-3
-314.000E-3	-76.7534E-12	1.88736E+0	-775.537E-3	-76.0744E-12	1.91249E+0	-758.691E-3
-312.000E-3	-75.1149E-12	1.84439E+0	-762.381E-3	-75.2605E-12	1.86035E+0	-758.517E-3
-310.000E-3	-73.7004E-12	1.82777E+0	-751.402E-3	-73.4611E-12	1.82364E+0	-742.391E-3
-308.000E-3	-73.9054E-12	1.79967E+0	-727.836E-3	-71.3654E-12	1.79539E+0	-709.785E-3
-306.000E-3	-65.0765E-12	1.75556E+0	-673.243E-3	-69.7332E-12	1.77506E+0	-655.705E-3
-304.000E-3	-69.0822E-12	1.75049E+0	-597.373E-3	-69.1949E-12	1.76935E+0	-579.281E-3
-302.000E-3	-70.9694E-12	1.77522E+0	-483.124E-3	-69.2738E-12	1.78187E+0	-494.075E-3
-300.000E-3	-69.7523E-12	1.80701E+0	-386.191E-3	-69.4426E-12	1.80671E+0	-422.603E-3
-298.000E-3	-68.2543E-12	1.83947E+0	-354.387E-3	-68.6670E-12	1.83075E+0	-381.184E-3
-296.000E-3	-68.2444E-12	1.85946E+0	-363.105E-3	-67.6641E-12	1.84431E+0	-372.362E-3
-294.000E-3	-66.0834E-12	1.85201E+0	-379.758E-3	-66.7511E-12	1.84418E+0	-385.928E-3
-292.000E-3	-66.0954E-12	1.83440E+0	-406.094E-3	-65.7931E-12	1.83312E+0	-410.558E-3
-290.000E-3	-65.2900E-12	1.81599E+0	-439.867E-3	-64.8705E-12	1.81535E+0	-439.434E-3
-288.000E-3	-62.9702E-12	1.79956E+0	-473.300E-3	-64.0892E-12	1.79186E+0	-468.016E-3
-286.000E-3	-63.9469E-12	1.77006E+0	-496.816E-3	-63.3959E-12	1.76308E+0	-492.981E-3
-284.000E-3	-62.8835E-12	1.72344E+0	-514.194E-3	-62.6996E-12	1.73467E+0	-513.936E-3
-282.000E-3	-61.9902E-12	1.69785E+0	-532.423E-3	-61.9509E-12	1.71554E+0	-532.096E-3
-280.000E-3	-60.7905E-12	1.70331E+0	-550.978E-3	-60.7304E-12	1.71082E+0	-546.759E-3
-278.000E-3	-60.3303E-12	1.71830E+0	-564.415E-3	-59.5402E-12	1.71705E+0	-556.156E-3
-276.000E-3	-56.5936E-12	1.73022E+0	-560.826E-3	-58.4899E-12	1.72472E+0	-561.802E-3
-274.000E-3	-58.5333E-12	1.73402E+0	-558.515E-3	-57.7871E-12	1.72598E+0	-569.216E-3
-272.000E-3	-57.3560E-12	1.72508E+0	-576.703E-3	-57.2182E-12	1.71724E+0	-583.019E-3
-270.000E-3	-56.6545E-12	1.70476E+0	-605.017E-3	-56.6635E-12	1.69823E+0	-601.480E-3
-268.000E-3	-55.8773E-12	1.67382E+0	-627.688E-3	-55.7986E-12	1.67036E+0	-618.927E-3
-266.000E-3	-55.0164E-12	1.63953E+0	-631.801E-3	-54.8162E-12	1.63685E+0	-632.671E-3
-264.000E-3	-53.8714E-12	1.59871E+0	-639.524E-3	-53.8288E-12	1.60369E+0	-644.102E-3
-262.000E-3	-52.1874E-12	1.56411E+0	-658.730E-3	-52.9712E-12	1.57905E+0	-654.086E-3
-260.000E-3	-52.6251E-12	1.55504E+0	-668.028E-3	-52.2758E-12	1.56894E+0	-659.548E-3
-258.000E-3	-51.8834E-12	1.56838E+0	-665.061E-3	-51.6638E-12	1.57317E+0	-655.741E-3
-256.000E-3	-50.7482E-12	1.58833E+0	-646.584E-3	-51.0868E-12	1.58442E+0	-641.026E-3
-254.000E-3	-50.4470E-12	1.60158E+0	-620.795E-3	-50.2292E-12	1.59279E+0	-618.422E-3
-252.000E-3	-50.1371E-12	1.60080E+0	-590.859E-3	-49.2590E-12	1.59127E+0	-593.084E-3
-250.000E-3	-47.0796E-12	1.58573E+0	-564.065E-3	-48.3522E-12	1.57716E+0	-570.140E-3
-248.000E-3	-47.4818E-12	1.55814E+0	-548.400E-3	-47.6027E-12	1.55238E+0	-552.881E-3
-246.000E-3	-47.7811E-12	1.51965E+0	-538.160E-3	-47.0111E-12	1.52162E+0	-542.573E-3
-244.000E-3	-46.1262E-12	1.48699E+0	-534.570E-3	-46.3539E-12	1.49019E+0	-538.507E-3
-242.000E-3	-45.7260E-12	1.45890E+0	-537.685E-3	-45.5472E-12	1.46237E+0	-540.355E-3
-240.000E-3	-44.1526E-12	1.43480E+0	-541.788E-3	-44.4918E-12	1.44074E+0	-549.499E-3
-238.000E-3	-44.5533E-12	1.42081E+0	-559.020E-3	-43.5733E-12	1.42311E+0	-565.602E-3
-236.000E-3	-41.0362E-12	1.41442E+0	-590.245E-3	-42.8586E-12	1.40408E+0	-583.588E-3
-234.000E-3	-42.9014E-12	1.38725E+0	-609.658E-3	-42.5341E-12	1.38037E+0	-594.780E-3
-232.000E-3	-42.8403E-12	1.34545E+0	-604.114E-3	-39.8491E-12	1.35459E+0	-593.386E-3
-230.000E-3	-42.0393E-12	1.32309E+0	-579.936E-3	-36.6446E-12	1.32989E+0	-581.298E-3
-228.000E-3	-19.4324E-12	1.31718E+0	-561.388E-3	-34.1734E-12	1.30451E+0	-566.726E-3
-226.000E-3	-39.0450E-12	1.28495E+0	-550.484E-3	-34.5841E-12	1.27455E+0	-556.110E-3
-224.000E-3	-38.6112E-12	1.23125E+0	-550.267E-3	-36.5387E-12	1.24119E+0	-550.685E-3
-222.000E-3	-38.5536E-12	1.19920E+0	-548.772E-3	-37.9290E-12	1.21383E+0	-547.585E-3
-220.000E-3	-38.4400E-12	1.18844E+0	-545.595E-3	-36.3884E-12	1.20294E+0	-543.973E-3
-218.000E-3	-32.5894E-12	1.19931E+0	-539.999E-3	-34.8819E-12	1.21120E+0	-540.458E-3
-216.000E-3	-32.0475E-12	1.22967E+0	-531.529E-3	-34.2284E-12	1.23248E+0	-541.346E-3
-214.000E-3	-35.9095E-12	1.26464E+0	-541.423E-3	-34.5697E-12	1.25691E+0	-549.730E-3
-212.000E-3	-35.8560E-12	1.28631E+0	-566.471E-3	-35.2539E-12	1.27533E+0	-564.111E-3
-210.000E-3	-35.5245E-12	1.28897E+0	-585.133E-3	-35.3231E-12	1.28392E+0	-579.160E-3
-208.000E-3	-34.8627E-12	1.28490E+0	-593.804E-3	-33.5438E-12	1.28415E+0	-588.922E-3
-206.000E-3	-34.0355E-12	1.28234E+0	-596.520E-3	-30.6321E-12	1.27729E+0	-591.216E-3
-204.000E-3	-22.4127E-12	1.27355E+0	-590.042E-3	-28.0990E-12	1.25855E+0	-587.663E-3
-202.000E-3	-24.9325E-12	1.24374E+0	-579.889E-3	-27.5150E-12	1.22223E+0	-579.218E-3
-200.000E-3	-30.9286E-12	1.17241E+0	-572.766E-3	-28.7055E-12	1.17135E+0	-566.341E-3
-198.000E-3	-31.5899E-12	1.10044E+0	-550.841E-3	-28.5789E-12	1.12068E+0	-550.209E-3
-196.000E-3	-30.8367E-12	1.06315E+0	-529.311E-3	-26.4321E-12	1.08513E+0	-532.991E-3
-194.000E-3	-14.2869E-12	1.06489E+0	-515.297E-3	-24.3068E-12	1.06613E+0	-516.774E-3
-192.000E-3	-24.7547E-12	1.06802E+0	-502.887E-3	-24.5395E-12	1.05257E+0	-503.329E-3
-190.000E-3	-29.4884E-12	1.03753E+0	-489.582E-3	-26.3542E-12	1.03722E+0	-493.530E-3
-188.000E-3	-28.8853E-12	1.00576E+0	-482.313E-3	-28.1876E-12	1.02588E+0	-488.716E-3
-186.000E-3	-27.9297E-12	1.01012E+0	-486.435E-3	-28.0720E-12	1.03067E+0	-490.558E-3
-184.000E-3	-27.5164E-12	1.04715E+0	-494.947E-3	-27.3097E-12	1.05633E+0	-499.266E-3
-182.000E-3	-26.4966E-12	1.09753E+0	-510.909E-3	-26.5600E-12	1.09526E+0	-513.387E-3
-180.000E-3	-25.5806E-12	1.14245E+0	-530.474E-3	-25.9300E-12	1.13514E+0	-528.421E-3
-178.000E-3	-25.4113E-12	1.17615E+0	-549.935E-3	-25.4459E-12	1.16658E+0	-538.084E-3
-176.000E-3	-25.1917E-12	1.19607E+0	-547.838E-3	-25.0225E-12	1.18465E+0	-536.828E-3
-174.000E-3	-24.7421E-12	1.19826E+0	-528.507E-3	-24.5329E-12	1.18861E+0	-525.818E-3
-172.000E-3	-23.7750E-12	1.18497E+0	-503.121E-3	-23.9691E-12	1.18053E+0	-511.639E-3
-170.000E-3	-23.2955E-12	1.16670E+0	-495.827E-3	-23.4218E-12	1.16358E+0	-500.672E-3
-168.000E-3	-23.0635E-12	1.14466E+0	-496.360E-3	-22.9405E-12	1.14088E+0	-494.698E-3
-166.000E-3	-22.4557E-12	1.11516E+0	-489.951E-3	-22.3064E-12	1.11581E+0	-493.298E-3
-164.000E-3	-22.0463E-12	1.08627E+0	-489.417E-3	-21.6184E-12	1.09220E+0	-495.187E-3
-162.000E-3	-19.8591E-12	1.06811E+0	-501.597E-3	-20.9683E-12	1.07377E+0	-499.831E-3
-160.000E-3	-20.9616E-12	1.05821E+0	-507.217E-3	-20.2874E-12	1.06176E+0	-505.798E-3
-158.000E-3	-20.2283E-12	1.05421E+0	-511.325E-3	-19.4128E-12	1.05322E+0	-510.988E-3
-156.000E-3	-17.7276E-12	1.04943E+0	-515.514E-3	-18.5035E-12	1.04289E+0	-514.545E-3
-154.000E-3	-17.0386E-12	1.03308E+0	-517.864E-3	-17.5716E-12	1.02753E+0	-516.717E-3
-152.000E-3	-17.6047E-12	1.00662E+0	-519.025E-3	-17.1517E-12	1.00692E+0	-518.075E-3
-150.000E-3	-15.9631E-12	983.658E-3	-516.652E-3	-17.1636E-12	983.208E-3	-519.642E-3
-148.000E-3	-18.1002E-12	959.127E-3	-521.515E-3	-17.3360E-12	959.398E-3	-522.225E-3
-146.000E-3	-17.6355E-12	933.526E-3	-526.887E-3	-17.3450E-12	937.769E-3	-525.352E-3
-144.000E-3	-17.2620E-12	916.324E-3	-529.285E-3	-17.1686E-12	919.583E-3	-527.744E-3
-142.000E-3	-16.5141E-12	903.600E-3	-529.674E-3	-16.7303E-12	905.890E-3	-528.314E-3
-140.000E-3	-16.3803E-12	893.218E-3	-527.507E-3	-16.3417E-12	896.580E-3	-527.273E-3
-138.000E-3	-16.0282E-12	889.213E-3	-525.700E-3	-15.9962E-12	890.109E-3	-526.329E-3
-136.000E-3	-15.6152E-12	886.705E-3	-522.871E-3	-14.8815E-12	884.936E-3	-527.551E-3
-134.000E-3	-15.3843E-12	879.678E-3	-529.521E-3	-12.6964E-12	878.424E-3	-532.286E-3
-132.000E-3	-7.89607E-12	873.926E-3	-540.065E-3	-9.85571E-12	864.706E-3	-539.748E-3
-130.000E-3	-6.04091E-12	856.217E-3	-549.846E-3	-7.41328E-12	835.859E-3	-548.138E-3
-128.000E-3	-5.79491E-12	803.922E-3	-556.038E-3	-6.08447E-12	786.487E-3	-555.353E-3
-126.000E-3	-5.57678E-12	723.722E-3	-562.474E-3	-6.61133E-12	718.784E-3	-560.545E-3
-124.000E-3	-6.22695E-12	636.911E-3	-565.359E-3	-8.22852E-12	644.382E-3	-563.667E-3
-122.000E-3	-12.5360E-12	561.020E-3	-565.351E-3	-10.2401E-12	580.833E-3	-565.584E-3
-120.000E-3	-12.5977E-12	513.663E-3	-565.656E-3	-11.5792E-12	543.808E-3	-565.602E-3
-118.000E-3	-12.1671E-12	515.282E-3	-569.650E-3	-11.9393E-12	540.756E-3	-563.630E-3
-116.000E-3	-10.8923E-12	556.602E-3	-557.661E-3	-11.5840E-12	567.979E-3	-559.844E-3
-114.000E-3	-11.5464E-12	613.550E-3	-553.891E-3	-11.3185E-12	612.546E-3	-555.660E-3
-112.000E-3	-11.2955E-12	668.302E-3	-551.806E-3	-11.1063E-12	658.488E-3	-552.357E-3
-110.000E-3	-10.8014E-12	707.477E-3	-550.402E-3	-10.8612E-12	694.196E-3	-550.675E-3
-108.000E-3	-10.5202E-12	725.117E-3	-549.442E-3	-10.5011E-12	715.264E-3	-548.649E-3
-106.000E-3	-10.1409E-12	728.093E-3	-548.420E-3	-10.1442E-12	723.542E-3	-544.679E-3
-104.000E-3	-9.78152E-12	724.765E-3	-540.110E-3	-9.80646E-12	724.094E-3	-538.601E-3
-102.000E-3	-9.46763E-12	721.310E-3	-528.379E-3	-9.48998E-12	721.544E-3	-531.886E-3
-100.000E-3	-9.16978E-12	718.675E-3	-524.508E-3	-9.19212E-12	717.532E-3	-525.467E-3
-98.0000E-3	-8.96047E-12	714.888E-3	-523.093E-3	-8.89665E-12	710.581E-3	-520.098E-3
-96.0000E-3	-8.57060E-12	704.794E-3	-512.295E-3	-8.59234E-12	698.718E-3	-515.343E-3
-94.0000E-3	-8.26423E-12	683.263E-3	-510.860E-3	-8.27791E-12	682.396E-3	-511.945E-3
-92.0000E-3	-7.98930E-12	660.728E-3	-507.545E-3	-7.96319E-12	664.776E-3	-511.390E-3
-90.0000E-3	-7.62393E-12	646.005E-3	-512.320E-3	-7.65625E-12	649.289E-3	-514.423E-3
-88.0000E-3	-7.36573E-12	636.361E-3	-520.092E-3	-7.35553E-12	637.256E-3	-519.152E-3
-86.0000E-3	-7.04612E-12	627.390E-3	-526.267E-3	-7.05782E-12	628.379E-3	-524.732E-3
-84.0000E-3	-6.78082E-12	618.584E-3	-527.603E-3	-6.76434E-12	623.114E-3	-530.311E-3
-82.0000E-3	-6.45809E-12	617.279E-3	-536.718E-3	-6.47983E-12	622.696E-3	-535.534E-3
-80.0000E-3	-6.16992E-12	625.487E-3	-542.886E-3	-6.20103E-12	626.896E-3	-538.795E-3
-78.0000E-3	-5.99152E-12	635.522E-3	-542.806E-3	-5.91920E-12	633.034E-3	-537.450E-3
-76.0000E-3	-5.60508E-12	641.135E-3	-534.773E-3	-5.63171E-12	637.059E-3	-530.191E-3
-74.0000E-3	-5.31793E-12	640.853E-3	-517.782E-3	-5.34069E-12	636.382E-3	-519.521E-3
-72.0000E-3	-5.06848E-12	632.776E-3	-504.607E-3	-5.05414E-12	631.287E-3	-509.421E-3
-70.0000E-3	-4.76829E-12	622.663E-3	-500.248E-3	-4.78454E-12	624.067E-3	-503.040E-3
-68.0000E-3	-4.51091E-12	615.402E-3	-498.871E-3	-4.51953E-12	617.653E-3	-502.029E-3
-66.0000E-3	-4.27347E-12	611.006E-3	-501.393E-3	-4.26248E-12	614.227E-3	-506.138E-3
-64.0000E-3	-3.98825E-12	612.110E-3	-513.150E-3	-4.00493E-12	613.516E-3	-514.777E-3
-62.0000E-3	-3.78143E-12	616.539E-3	-525.464E-3	-3.74662E-12	613.355E-3	-526.396E-3
-60.0000E-3	-3.44898E-12	614.364E-3	-540.809E-3	-3.48903E-12	610.798E-3	-538.985E-3
-58.0000E-3	-3.24371E-12	607.552E-3	-551.459E-3	-3.23340E-12	603.595E-3	-551.099E-3
-56.0000E-3	-2.99899E-12	594.516E-3	-562.075E-3	-2.98288E-12	591.806E-3	-562.188E-3
-54.0000E-3	-2.69720E-12	576.321E-3	-574.302E-3	-2.74169E-12	577.072E-3	-570.849E-3
-52.0000E-3	-2.52563E-12	561.333E-3	-580.944E-3	-2.50920E-12	560.882E-3	-574.976E-3
-50.0000E-3	-2.27332E-12	545.024E-3	-578.057E-3	-2.29006E-12	543.751E-3	-573.004E-3
-48.0000E-3	-2.07611E-12	526.912E-3	-566.557E-3	-2.07794E-12	524.681E-3	-566.865E-3
-46.0000E-3	-1.88265E-12	506.152E-3	-554.810E-3	-1.87302E-12	502.122E-3	-561.079E-3
-44.0000E-3	-1.63503E-12	478.126E-3	-555.456E-3	-1.67776E-12	475.543E-3	-558.253E-3
-42.0000E-3	-1.52041E-12	446.585E-3	-561.452E-3	-1.49117E-12	445.983E-3	-557.737E-3
-40.0000E-3	-1.29490E-12	413.657E-3	-558.071E-3	-1.31798E-12	416.552E-3	-557.179E-3
-38.0000E-3	-1.13114E-12	384.565E-3	-554.688E-3	-1.15683E-12	391.878E-3	-555.872E-3
-36.0000E-3	-1.03065E-12	366.989E-3	-552.706E-3	-1.00695E-12	375.643E-3	-555.393E-3
-34.0000E-3	-837.884E-15	363.631E-3	-555.559E-3	-871.099E-15	368.297E-3	-557.359E-3
-32.0000E-3	-749.543E-15	367.697E-3	-561.157E-3	-746.290E-15	365.787E-3	-561.442E-3
-30.0000E-3	-620.902E-15	368.753E-3	-566.729E-3	-635.299E-15	361.318E-3	-565.481E-3
-28.0000E-3	-524.622E-15	357.677E-3	-572.215E-3	-539.468E-15	349.253E-3	-567.181E-3
-26.0000E-3	-464.297E-15	332.996E-3	-566.904E-3	-452.478E-15	328.241E-3	-564.859E-3
-24.0000E-3	-356.494E-15	301.044E-3	-561.067E-3	-374.384E-15	300.488E-3	-558.967E-3
-22.0000E-3	-302.398E-15	270.065E-3	-549.883E-3	-299.444E-15	269.609E-3	-551.943E-3
-20.0000E-3	-234.822E-15	237.371E-3	-542.443E-3	-229.940E-15	239.081E-3	-547.492E-3
-18.0000E-3	-142.587E-15	206.681E-3	-543.380E-3	-159.281E-15	211.899E-3	-547.342E-3
-16.0000E-3	-121.644E-15	184.765E-3	-551.290E-3	-79.6144E-15	189.751E-3	-550.989E-3
-14.0000E-3	18.7047E-15	171.438E-3	-557.584E-3	7.08441E-15	173.510E-3	-555.238E-3
-12.0000E-3	115.013E-15	158.618E-3	-560.861E-3	106.393E-15	164.088E-3	-557.122E-3
-10.0000E-3	169.202E-15	153.668E-3	-557.173E-3	214.589E-15	163.580E-3	-555.969E-3
-8.00000E-3	363.665E-15	164.783E-3	-551.701E-3	335.947E-15	174.441E-3	-552.630E-3
-6.00000E-3	429.056E-15	190.623E-3	-549.759E-3	469.261E-15	197.176E-3	-548.551E-3
-4.00000E-3	637.420E-15	226.233E-3	-543.389E-3	614.731E-15	228.664E-3	-545.770E-3
-2.00000E-3	746.164E-15	265.561E-3	-540.909E-3	769.917E-15	263.952E-3	-546.132E-3
0.00000E+0	918.955E-15	301.577E-3	-548.161E-3	937.000E-15	298.556E-3	-549.195E-3
2.00000E-3	1.14033E-12	333.105E-3	-558.215E-3	1.10725E-12	329.211E-3	-552.192E-3
4.00000E-3	1.25918E-12	359.376E-3	-556.259E-3	1.28621E-12	354.297E-3	-551.363E-3
6.00000E-3	1.45544E-12	376.914E-3	-547.024E-3	1.46091E-12	373.706E-3	-546.085E-3
8.00000E-3	1.67749E-12	390.195E-3	-535.938E-3	1.64069E-12	388.633E-3	-539.241E-3
10.0000E-3	1.76497E-12	401.018E-3	-531.347E-3	1.81592E-12	401.129E-3	-534.405E-3
12.0000E-3	2.05122E-12	412.238E-3	-531.442E-3	1.98472E-12	412.141E-3	-532.466E-3
14.0000E-3	2.10988E-12	425.275E-3	-533.132E-3	2.14465E-12	420.046E-3	-532.159E-3
16.0000E-3	2.31146E-12	429.565E-3	-532.736E-3	2.29808E-12	422.243E-3	-531.728E-3
18.0000E-3	2.46356E-12	421.238E-3	-530.622E-3	2.44292E-12	417.377E-3	-530.500E-3
20.0000E-3	2.55665E-12	408.057E-3	-528.642E-3	2.58675E-12	406.524E-3	-529.214E-3
22.0000E-3	2.75743E-12	392.915E-3	-526.738E-3	2.72511E-12	391.397E-3	-529.047E-3
24.0000E-3	2.84333E-12	376.979E-3	-529.505E-3	2.86912E-12	372.889E-3	-529.481E-3
26.0000E-3	3.00515E-12	352.685E-3	-533.632E-3	3.00893E-12	352.797E-3	-529.690E-3
28.0000E-3	3.20011E-12	326.983E-3	-527.274E-3	3.14478E-12	335.435E-3	-530.178E-3
30.0000E-3	3.21650E-12	316.441E-3	-527.436E-3	3.28011E-12	325.501E-3	-532.289E-3
32.0000E-3	3.43956E-12	320.558E-3	-537.239E-3	3.41399E-12	323.605E-3	-536.576E-3
34.0000E-3	3.55974E-12	330.270E-3	-544.278E-3	3.55063E-12	324.959E-3	-541.943E-3
36.0000E-3	3.66791E-12	329.565E-3	-547.121E-3	3.69256E-12	323.607E-3	-546.251E-3
38.0000E-3	3.84688E-12	318.610E-3	-549.104E-3	3.83176E-12	317.942E-3	-548.175E-3
40.0000E-3	3.96704E-12	306.929E-3	-551.037E-3	3.98371E-12	311.292E-3	-548.277E-3
42.0000E-3	4.12321E-12	302.505E-3	-545.723E-3	4.14295E-12	308.123E-3	-546.735E-3
44.0000E-3	4.33919E-12	307.991E-3	-545.592E-3	4.30699E-12	310.656E-3	-544.430E-3
46.0000E-3	4.44963E-12	315.713E-3	-540.431E-3	4.47605E-12	319.257E-3	-540.913E-3
48.0000E-3	4.64654E-12	328.174E-3	-540.397E-3	4.64565E-12	333.989E-3	-535.558E-3
50.0000E-3	4.82950E-12	350.618E-3	-528.607E-3	4.81858E-12	354.140E-3	-528.097E-3
52.0000E-3	4.97539E-12	379.278E-3	-516.768E-3	4.99243E-12	377.187E-3	-521.599E-3
54.0000E-3	5.19007E-12	403.897E-3	-512.325E-3	5.16297E-12	398.315E-3	-518.831E-3
56.0000E-3	5.31113E-12	420.222E-3	-520.732E-3	5.34122E-12	412.442E-3	-520.731E-3
58.0000E-3	5.50625E-12	424.762E-3	-527.085E-3	5.52870E-12	417.009E-3	-524.308E-3
60.0000E-3	5.75948E-12	416.467E-3	-529.035E-3	5.72448E-12	413.277E-3	-527.004E-3
62.0000E-3	5.90042E-12	403.389E-3	-526.303E-3	5.92309E-12	405.732E-3	-529.100E-3
64.0000E-3	6.13222E-12	394.278E-3	-529.067E-3	6.12190E-12	400.301E-3	-532.163E-3
66.0000E-3	6.30515E-12	394.593E-3	-538.923E-3	6.32715E-12	401.632E-3	-534.475E-3
68.0000E-3	6.53719E-12	406.056E-3	-541.803E-3	6.54139E-12	410.873E-3	-531.396E-3
70.0000E-3	6.78168E-12	425.209E-3	-526.489E-3	6.76272E-12	425.768E-3	-520.650E-3
72.0000E-3	6.95344E-12	444.673E-3	-499.885E-3	6.99620E-12	442.393E-3	-505.761E-3
74.0000E-3	7.24244E-12	460.174E-3	-485.680E-3	7.23897E-12	457.216E-3	-493.666E-3
76.0000E-3	7.50431E-12	471.268E-3	-484.321E-3	7.47271E-12	469.080E-3	-489.397E-3
78.0000E-3	7.72956E-12	477.986E-3	-489.167E-3	7.69754E-12	478.916E-3	-493.841E-3
80.0000E-3	7.84982E-12	487.535E-3	-501.060E-3	7.92495E-12	487.890E-3	-504.623E-3
82.0000E-3	8.15233E-12	498.126E-3	-519.577E-3	8.17293E-12	496.344E-3	-518.866E-3
84.0000E-3	8.48205E-12	504.777E-3	-535.669E-3	8.43801E-12	504.710E-3	-533.061E-3
86.0000E-3	8.70193E-12	510.653E-3	-548.752E-3	8.67287E-12	514.269E-3	-543.564E-3
88.0000E-3	8.95257E-12	523.061E-3	-553.299E-3	8.87836E-12	526.433E-3	-548.178E-3
90.0000E-3	8.92628E-12	541.729E-3	-549.558E-3	9.09934E-12	540.699E-3	-548.071E-3
92.0000E-3	9.34499E-12	558.282E-3	-542.635E-3	9.39297E-12	553.910E-3	-546.087E-3
94.0000E-3	9.75789E-12	568.060E-3	-543.789E-3	9.72334E-12	563.175E-3	-545.291E-3
96.0000E-3	10.1793E-12	568.704E-3	-545.779E-3	10.0472E-12	568.617E-3	-546.322E-3
98.0000E-3	10.2623E-12	569.992E-3	-549.699E-3	10.2763E-12	573.264E-3	-547.759E-3
100.000E-3	10.5477E-12	576.983E-3	-549.693E-3	10.4972E-12	579.980E-3	-548.425E-3
102.000E-3	10.4635E-12	589.146E-3	-546.551E-3	10.7583E-12	589.359E-3	-548.937E-3
104.000E-3	11.2469E-12	601.141E-3	-548.898E-3	11.1030E-12	600.187E-3	-550.103E-3
106.000E-3	11.4672E-12	610.566E-3	-553.139E-3	11.4750E-12	611.476E-3	-552.095E-3
108.000E-3	11.8498E-12	622.194E-3	-554.881E-3	11.8416E-12	622.830E-3	-553.906E-3
110.000E-3	12.1972E-12	635.468E-3	-555.672E-3	12.0191E-12	633.307E-3	-553.461E-3
112.000E-3	12.4536E-12	645.456E-3	-554.151E-3	12.1992E-12	640.682E-3	-549.607E-3
114.000E-3	11.5255E-12	647.977E-3	-543.308E-3	12.4724E-12	641.994E-3	-543.335E-3
116.000E-3	13.2873E-12	641.787E-3	-532.481E-3	12.9019E-12	636.675E-3	-537.973E-3
118.000E-3	13.6362E-12	625.365E-3	-531.150E-3	13.3717E-12	628.657E-3	-538.025E-3
120.000E-3	13.6617E-12	614.015E-3	-539.870E-3	13.7834E-12	624.514E-3	-545.369E-3
122.000E-3	14.0634E-12	621.490E-3	-559.263E-3	13.9737E-12	629.013E-3	-556.281E-3
124.000E-3	14.3296E-12	640.377E-3	-573.895E-3	14.2066E-12	641.488E-3	-563.706E-3
126.000E-3	13.9744E-12	660.805E-3	-570.759E-3	14.5443E-12	656.813E-3	-563.486E-3
128.000E-3	15.2117E-12	673.428E-3	-554.319E-3	14.3681E-12	671.164E-3	-556.519E-3
130.000E-3	15.6158E-12	680.903E-3	-545.307E-3	13.1119E-12	685.005E-3	-547.621E-3
132.000E-3	10.3060E-12	697.109E-3	-538.713E-3	10.9514E-12	697.798E-3	-540.876E-3
134.000E-3	6.93809E-12	719.245E-3	-535.447E-3	9.18920E-12	702.972E-3	-536.632E-3
136.000E-3	7.06750E-12	714.401E-3	-535.426E-3	8.75219E-12	691.430E-3	-532.128E-3
138.000E-3	11.0092E-12	669.023E-3	-529.325E-3	10.1864E-12	661.097E-3	-524.841E-3
140.000E-3	10.8403E-12	611.866E-3	-515.486E-3	12.4303E-12	621.845E-3	-515.626E-3
142.000E-3	16.4170E-12	572.780E-3	-499.443E-3	14.7225E-12	589.302E-3	-508.042E-3
144.000E-3	16.6837E-12	560.411E-3	-501.467E-3	16.5071E-12	573.581E-3	-506.020E-3
146.000E-3	17.8964E-12	567.890E-3	-508.298E-3	17.5805E-12	576.062E-3	-510.787E-3
148.000E-3	18.9435E-12	584.837E-3	-518.030E-3	18.0461E-12	593.080E-3	-520.316E-3
150.000E-3	16.8986E-12	616.111E-3	-533.298E-3	18.4997E-12	618.456E-3	-531.006E-3
152.000E-3	19.7154E-12	652.722E-3	-543.343E-3	18.8219E-12	644.216E-3	-540.522E-3
154.000E-3	19.9424E-12	674.023E-3	-548.833E-3	18.4809E-12	662.873E-3	-547.721E-3
156.000E-3	17.9710E-12	676.866E-3	-553.046E-3	18.1543E-12	670.865E-3	-553.837E-3
158.000E-3	14.5566E-12	671.194E-3	-557.116E-3	18.2234E-12	670.154E-3	-559.760E-3
160.000E-3	20.9227E-12	665.311E-3	-570.134E-3	18.5112E-12	667.119E-3	-564.415E-3
162.000E-3	21.2917E-12	659.497E-3	-570.126E-3	18.9937E-12	668.979E-3	-566.079E-3
164.000E-3	14.9816E-12	669.792E-3	-563.596E-3	19.5648E-12	679.766E-3	-563.990E-3
166.000E-3	21.5942E-12	698.586E-3	-560.710E-3	20.3903E-12	698.876E-3	-559.256E-3
168.000E-3	22.7129E-12	724.397E-3	-552.874E-3	21.0536E-12	723.054E-3	-555.078E-3
170.000E-3	22.7493E-12	746.587E-3	-548.758E-3	20.7964E-12	747.158E-3	-552.201E-3
172.000E-3	17.8810E-12	774.648E-3	-554.012E-3	18.4699E-12	763.538E-3	-549.231E-3
174.000E-3	16.8044E-12	787.269E-3	-547.792E-3	15.9973E-12	761.935E-3	-545.230E-3
176.000E-3	10.2944E-12	758.125E-3	-536.640E-3	14.5404E-12	734.821E-3	-540.867E-3
178.000E-3	15.1369E-12	689.568E-3	-534.330E-3	15.2224E-12	687.789E-3	-539.170E-3
180.000E-3	16.6857E-12	616.419E-3	-538.392E-3	17.6203E-12	640.284E-3	-542.842E-3
182.000E-3	21.2074E-12	585.662E-3	-550.710E-3	20.3281E-12	614.662E-3	-549.529E-3
184.000E-3	25.1497E-12	598.610E-3	-562.503E-3	21.9077E-12	622.337E-3	-554.299E-3
186.000E-3	20.6329E-12	648.843E-3	-557.626E-3	21.5478E-12	659.495E-3	-556.402E-3
188.000E-3	22.4980E-12	714.280E-3	-548.466E-3	18.3732E-12	709.961E-3	-561.670E-3
190.000E-3	14.7385E-12	775.198E-3	-562.653E-3	14.9947E-12	751.251E-3	-576.791E-3
192.000E-3	3.29472E-12	800.851E-3	-603.215E-3	14.6430E-12	762.414E-3	-601.253E-3
194.000E-3	18.9375E-12	761.828E-3	-638.412E-3	17.1780E-12	737.442E-3	-626.599E-3
196.000E-3	28.3423E-12	680.247E-3	-651.759E-3	21.0302E-12	690.786E-3	-642.664E-3
198.000E-3	20.5909E-12	620.240E-3	-654.675E-3	23.1382E-12	649.646E-3	-645.475E-3
200.000E-3	24.2495E-12	608.316E-3	-640.961E-3	23.6631E-12	637.487E-3	-638.092E-3
202.000E-3	20.8935E-12	640.109E-3	-623.783E-3	24.4616E-12	660.901E-3	-624.864E-3
204.000E-3	29.7567E-12	704.986E-3	-611.814E-3	26.3021E-12	711.115E-3	-608.536E-3
206.000E-3	27.2704E-12	776.077E-3	-591.543E-3	24.8283E-12	774.257E-3	-590.876E-3
208.000E-3	28.3641E-12	843.367E-3	-570.892E-3	20.9712E-12	834.023E-3	-573.819E-3
210.000E-3	4.20546E-12	903.798E-3	-554.139E-3	17.6663E-12	871.106E-3	-560.174E-3
212.000E-3	14.2469E-12	912.615E-3	-547.916E-3	18.5638E-12	871.019E-3	-551.428E-3
214.000E-3	29.2441E-12	848.116E-3	-548.473E-3	23.0320E-12	834.810E-3	-547.184E-3
216.000E-3	28.2841E-12	764.693E-3	-542.027E-3	28.2167E-12	783.249E-3	-547.135E-3
218.000E-3	32.4516E-12	713.377E-3	-546.096E-3	30.5119E-12	746.613E-3	-552.886E-3
220.000E-3	30.8634E-12	714.919E-3	-559.612E-3	31.2736E-12	742.609E-3	-568.257E-3
222.000E-3	30.4791E-12	764.273E-3	-584.506E-3	32.2569E-12	765.154E-3	-595.102E-3
224.000E-3	34.5662E-12	811.817E-3	-630.501E-3	33.3491E-12	795.348E-3	-628.387E-3
226.000E-3	34.9564E-12	826.891E-3	-673.101E-3	34.0581E-12	818.898E-3	-657.071E-3
228.000E-3	35.1993E-12	830.016E-3	-689.651E-3	33.6163E-12	833.448E-3	-670.491E-3
230.000E-3	31.7041E-12	843.253E-3	-673.337E-3	32.9072E-12	842.357E-3	-662.653E-3
232.000E-3	29.5750E-12	857.529E-3	-646.847E-3	32.8062E-12	846.687E-3	-635.710E-3
234.000E-3	36.3307E-12	849.392E-3	-599.471E-3	33.1942E-12	848.372E-3	-598.264E-3
236.000E-3	34.0682E-12	835.429E-3	-548.559E-3	33.9160E-12	853.653E-3	-560.407E-3
238.000E-3	31.9697E-12	858.731E-3	-522.289E-3	34.8796E-12	866.899E-3	-527.934E-3
240.000E-3	36.8513E-12	897.581E-3	-504.172E-3	35.6766E-12	884.589E-3	-501.396E-3
242.000E-3	38.8822E-12	908.274E-3	-478.386E-3	36.8767E-12	898.429E-3	-479.253E-3
244.000E-3	35.1525E-12	903.030E-3	-451.168E-3	37.0654E-12	906.908E-3	-464.084E-3
246.000E-3	40.0359E-12	903.424E-3	-445.279E-3	36.5251E-12	915.704E-3	-459.087E-3
248.000E-3	32.3445E-12	931.261E-3	-468.635E-3	36.3471E-12	926.307E-3	-457.808E-3
250.000E-3	36.3803E-12	950.411E-3	-473.878E-3	37.4354E-12	933.825E-3	-450.421E-3
252.000E-3	40.5425E-12	933.535E-3	-427.524E-3	39.1753E-12	936.381E-3	-434.208E-3
254.000E-3	41.9027E-12	925.179E-3	-401.713E-3	41.1187E-12	940.334E-3	-419.249E-3
256.000E-3	42.4324E-12	943.247E-3	-402.755E-3	41.9845E-12	954.667E-3	-418.305E-3
258.000E-3	42.1648E-12	979.681E-3	-429.688E-3	41.3547E-12	981.311E-3	-435.109E-3
260.000E-3	42.0000E-12	1.01632E+0	-462.386E-3	40.1476E-12	1.01200E+0	-461.526E-3
262.000E-3	34.9572E-12	1.04835E+0	-493.994E-3	39.1631E-12	1.03482E+0	-485.719E-3
264.000E-3	39.5446E-12	1.06053E+0	-516.624E-3	38.7972E-12	1.04062E+0	-493.373E-3
266.000E-3	40.7810E-12	1.03797E+0	-503.231E-3	39.4648E-12	1.03223E+0	-475.509E-3
268.000E-3	37.4922E-12	1.00005E+0	-438.977E-3	40.8063E-12	1.02567E+0	-435.997E-3
270.000E-3	44.4017E-12	1.00876E+0	-371.961E-3	42.2773E-12	1.03757E+0	-393.769E-3
272.000E-3	43.5186E-12	1.07027E+0	-340.502E-3	43.1558E-12	1.06904E+0	-371.180E-3
274.000E-3	45.5007E-12	1.12570E+0	-360.647E-3	43.6809E-12	1.10594E+0	-377.317E-3
276.000E-3	40.2317E-12	1.14239E+0	-407.413E-3	43.6643E-12	1.13315E+0	-399.290E-3
278.000E-3	45.6591E-12	1.14779E+0	-442.209E-3	44.6084E-12	1.14627E+0	-412.965E-3
280.000E-3	45.0304E-12	1.15570E+0	-426.941E-3	46.0336E-12	1.14801E+0	-402.423E-3
282.000E-3	49.2321E-12	1.15092E+0	-367.953E-3	47.0736E-12	1.13991E+0	-373.094E-3
284.000E-3	48.5840E-12	1.12700E+0	-319.534E-3	47.1967E-12	1.12044E+0	-348.202E-3
286.000E-3	43.7487E-12	1.09600E+0	-317.344E-3	47.4162E-12	1.08800E+0	-350.305E-3
288.000E-3	48.5827E-12	1.05458E+0	-370.904E-3	48.2274E-12	1.04592E+0	-385.322E-3
290.000E-3	50.6274E-12	991.497E-3	-443.794E-3	49.4424E-12	1.00492E+0	-441.028E-3
292.000E-3	51.3054E-12	950.471E-3	-510.426E-3	49.9646E-12	979.440E-3	-497.681E-3
294.000E-3	49.7910E-12	960.493E-3	-558.727E-3	49.4401E-12	976.263E-3	-543.074E-3
296.000E-3	46.6657E-12	997.630E-3	-574.656E-3	48.8818E-12	989.643E-3	-578.007E-3
298.000E-3	49.2230E-12	1.01326E+0	-602.056E-3	49.2447E-12	1.00601E+0	-607.081E-3
300.000E-3	49.8348E-12	1.01882E+0	-644.602E-3	49.4111E-12	1.01585E+0	-627.418E-3
302.000E-3	52.9676E-12	1.02247E+0	-658.305E-3	49.8949E-12	1.01978E+0	-630.967E-3
304.000E-3	43.8741E-12	1.01752E+0	-621.769E-3	50.3878E-12	1.02633E+0	-610.812E-3
306.000E-3	55.0880E-12	1.02579E+0	-576.175E-3	51.7655E-12	1.04186E+0	-573.133E-3
308.000E-3	53.2348E-12	1.06715E+0	-520.024E-3	53.1321E-12	1.06778E+0	-532.807E-3
310.000E-3	55.1278E-12	1.10290E+0	-489.158E-3	54.0005E-12	1.09734E+0	-503.973E-3
312.000E-3	53.7451E-12	1.13432E+0	-479.188E-3	53.7507E-12	1.11807E+0	-490.693E-3
314.000E-3	52.0101E-12	1.13939E+0	-490.532E-3	53.9076E-12	1.11725E+0	-485.052E-3
316.000E-3	55.0514E-12	1.11176E+0	-496.229E-3	53.8852E-12	1.08688E+0	-474.507E-3
318.000E-3	55.7682E-12	1.04690E+0	-454.799E-3	54.4989E-12	1.02511E+0	-457.280E-3
320.000E-3	50.8387E-12	945.247E-3	-418.575E-3	55.7694E-12	942.663E-3	-446.872E-3
322.000E-3	60.1164E-12	837.185E-3	-430.255E-3	56.9412E-12	862.377E-3	-459.616E-3
324.000E-3	60.6900E-12	769.173E-3	-492.826E-3	58.0859E-12	808.472E-3	-494.051E-3
326.000E-3	54.4656E-12	768.208E-3	-560.817E-3	58.9390E-12	793.896E-3	-529.199E-3
328.000E-3	61.6200E-12	802.978E-3	-566.565E-3	59.6471E-12	816.621E-3	-548.616E-3
330.000E-3	60.5389E-12	853.548E-3	-540.094E-3	60.2143E-12	862.853E-3	-551.966E-3
332.000E-3	62.3229E-12	925.472E-3	-547.826E-3	60.7651E-12	917.544E-3	-544.248E-3
334.000E-3	57.6408E-12	976.987E-3	-553.241E-3	60.8912E-12	976.052E-3	-524.475E-3
336.000E-3	62.7685E-12	1.02020E+0	-501.964E-3	61.6956E-12	1.04219E+0	-490.930E-3
338.000E-3	63.0743E-12	1.10963E+0	-428.878E-3	62.4552E-12	1.11925E+0	-453.415E-3
340.000E-3	63.8169E-12	1.21392E+0	-403.487E-3	63.3147E-12	1.19100E+0	-429.499E-3
342.000E-3	62.0407E-12	1.29697E+0	-423.203E-3	63.5850E-12	1.22393E+0	-428.672E-3
344.000E-3	65.7020E-12	1.24738E+0	-442.387E-3	64.1787E-12	1.19908E+0	-444.168E-3
346.000E-3	63.3210E-12	1.11126E+0	-467.611E-3	64.7948E-12	1.13671E+0	-462.651E-3
348.000E-3	66.7418E-12	1.03166E+0	-484.441E-3	65.8388E-12	1.07692E+0	-474.724E-3
350.000E-3	65.5126E-12	1.03374E+0	-485.385E-3	66.6228E-12	1.04274E+0	-478.516E-3
352.000E-3	69.5421E-12	1.04823E+0	-473.137E-3	67.5755E-12	1.02708E+0	-477.072E-3
354.000E-3	66.5105E-12	1.01051E+0	-469.596E-3	68.2080E-12	1.01630E+0	-474.429E-3
356.000E-3	69.6855E-12	985.959E-3	-478.632E-3	68.9063E-12	1.01389E+0	-471.003E-3
358.000E-3	69.5651E-12	1.01123E+0	-470.451E-3	69.5421E-12	1.02736E+0	-467.224E-3
360.000E-3	69.8292E-12	1.06822E+0	-452.279E-3	70.3901E-12	1.05298E+0	-463.540E-3
362.000E-3	71.5998E-12	1.08923E+0	-463.572E-3	71.0142E-12	1.07978E+0	-456.948E-3
364.000E-3	71.8052E-12	1.09024E+0	-464.365E-3	71.5841E-12	1.10661E+0	-440.423E-3
366.000E-3	71.7058E-12	1.12495E+0	-419.622E-3	72.1697E-12	1.14290E+0	-413.499E-3
368.000E-3	72.4472E-12	1.18746E+0	-358.518E-3	72.9595E-12	1.19431E+0	-389.378E-3
370.000E-3	74.1854E-12	1.26251E+0	-355.491E-3	73.9698E-12	1.25078E+0	-385.312E-3
372.000E-3	75.5657E-12	1.31945E+0	-405.991E-3	75.0579E-12	1.29620E+0	-404.950E-3
374.000E-3	75.4929E-12	1.33338E+0	-445.014E-3	76.1183E-12	1.32431E+0	-438.199E-3
376.000E-3	77.2142E-12	1.33436E+0	-468.442E-3	77.0345E-12	1.34344E+0	-474.474E-3
378.000E-3	78.6011E-12	1.35047E+0	-506.546E-3	77.3997E-12	1.36761E+0	-512.872E-3
380.000E-3	77.9622E-12	1.39849E+0	-553.823E-3	77.6210E-12	1.40415E+0	-562.112E-3
382.000E-3	75.2432E-12	1.45344E+0	-605.290E-3	77.8704E-12	1.44925E+0	-628.784E-3
384.000E-3	80.0593E-12	1.49857E+0	-704.542E-3	78.5181E-12	1.49723E+0	-707.951E-3
386.000E-3	79.4528E-12	1.53963E+0	-813.202E-3	79.4872E-12	1.54445E+0	-783.478E-3
388.000E-3	79.8386E-12	1.59521E+0	-865.862E-3	80.3391E-12	1.59278E+0	-835.250E-3
390.000E-3	81.8697E-12	1.63823E+0	-873.567E-3	81.0112E-12	1.64283E+0	-851.105E-3
392.000E-3	80.6153E-12	1.69666E+0	-848.307E-3	81.9048E-12	1.68864E+0	-838.635E-3
394.000E-3	83.5564E-12	1.74538E+0	-802.631E-3	82.9380E-12	1.71929E+0	-815.030E-3
396.000E-3	84.0543E-12	1.74692E+0	-787.382E-3	83.8635E-12	1.72705E+0	-789.065E-3
398.000E-3	84.8792E-12	1.71885E+0	-778.284E-3	84.6380E-12	1.70654E+0	-752.268E-3
400.000E-3	85.0924E-12	1.68203E+0	-728.499E-3	84.9646E-12	1.65739E+0	-694.378E-3
402.000E-3	85.3377E-12	1.60066E+0	-607.168E-3	85.4841E-12	1.59163E+0	-624.898E-3
404.000E-3	84.9185E-12	1.49087E+0	-515.615E-3	86.2094E-12	1.53501E+0	-577.309E-3
406.000E-3	88.5132E-12	1.46181E+0	-531.739E-3	87.2188E-12	1.51328E+0	-577.125E-3
408.000E-3	87.8036E-12	1.52400E+0	-627.086E-3	88.1071E-12	1.53495E+0	-613.628E-3
410.000E-3	89.2129E-12	1.59059E+0	-694.902E-3	88.9007E-12	1.58377E+0	-646.794E-3
412.000E-3	88.9203E-12	1.64587E+0	-676.364E-3	89.5803E-12	1.63672E+0	-643.614E-3
414.000E-3	90.7206E-12	1.68223E+0	-610.202E-3	90.5060E-12	1.68176E+0	-600.244E-3
416.000E-3	91.5151E-12	1.72588E+0	-533.275E-3	91.4954E-12	1.71590E+0	-534.929E-3
418.000E-3	92.4365E-12	1.75422E+0	-459.149E-3	92.4923E-12	1.73389E+0	-471.492E-3
420.000E-3	93.6651E-12	1.74898E+0	-399.062E-3	93.2494E-12	1.73375E+0	-430.849E-3
422.000E-3	94.0016E-12	1.71533E+0	-388.871E-3	93.8865E-12	1.72224E+0	-426.675E-3
424.000E-3	93.9823E-12	1.69589E+0	-443.786E-3	94.5264E-12	1.71248E+0	-460.472E-3
426.000E-3	95.2890E-12	1.70822E+0	-519.192E-3	95.2570E-12	1.70854E+0	-518.510E-3
428.000E-3	96.3630E-12	1.72404E+0	-594.505E-3	96.0768E-12	1.70121E+0	-576.611E-3
430.000E-3	96.7822E-12	1.69653E+0	-643.602E-3	96.8554E-12	1.67696E+0	-609.503E-3
432.000E-3	97.5674E-12	1.63949E+0	-640.531E-3	97.6628E-12	1.63218E+0	-602.813E-3
434.000E-3	98.1562E-12	1.57219E+0	-573.189E-3	98.5583E-12	1.57539E+0	-560.831E-3
436.000E-3	100.042E-12	1.51124E+0	-484.960E-3	99.5572E-12	1.52384E+0	-506.800E-3
438.000E-3	100.384E-12	1.46308E+0	-436.360E-3	100.453E-12	1.49566E+0	-468.301E-3
440.000E-3	101.445E-12	1.46869E+0	-441.011E-3	101.356E-12	1.50614E+0	-458.655E-3
442.000E-3	101.704E-12	1.53179E+0	-472.747E-3	102.235E-12	1.55808E+0	-471.822E-3
444.000E-3	103.747E-12	1.63968E+0	-497.677E-3	103.042E-12	1.63872E+0	-493.533E-3
446.000E-3	104.003E-12	1.74104E+0	-515.265E-3	103.620E-12	1.72757E+0	-513.821E-3
448.000E-3	103.518E-12	1.81592E+0	-532.789E-3	104.232E-12	1.80907E+0	-528.458E-3
450.000E-3	104.438E-12	1.88572E+0	-544.994E-3	105.033E-12	1.87640E+0	-534.557E-3
452.000E-3	106.706E-12	1.94155E+0	-540.390E-3	106.177E-12	1.92689E+0	-528.747E-3
454.000E-3	107.349E-12	1.97655E+0	-516.875E-3	107.265E-12	1.95565E+0	-511.139E-3
456.000E-3	108.594E-12	1.98002E+0	-483.799E-3	108.165E-12	1.95506E+0	-486.616E-3
458.000E-3	108.234E-12	1.94699E+0	-457.648E-3	108.876E-12	1.92223E+0	-460.557E-3
460.000E-3	110.044E-12	1.87227E+0	-437.763E-3	109.660E-12	1.86432E+0	-437.103E-3
462.000E-3	110.271E-12	1.78405E+0	-411.202E-3	110.605E-12	1.79682E+0	-420.342E-3
464.000E-3	111.413E-12	1.72195E+0	-399.953E-3	111.682E-12	1.73508E+0	-414.501E-3
466.000E-3	113.360E-12	1.68011E+0	-414.161E-3	112.714E-12	1.68733E+0	-422.212E-3
468.000E-3	113.484E-12	1.64632E+0	-438.484E-3	113.720E-12	1.65503E+0	-442.654E-3
470.000E-3	114.524E-12	1.62375E+0	-467.778E-3	114.630E-12	1.63937E+0	-472.227E-3
472.000E-3	115.733E-12	1.62488E+0	-503.824E-3	115.471E-12	1.64305E+0	-506.973E-3
474.000E-3	116.277E-12	1.65703E+0	-546.933E-3	116.337E-12	1.66548E+0	-542.618E-3
476.000E-3	117.049E-12	1.70044E+0	-582.400E-3	117.239E-12	1.70039E+0	-572.918E-3
478.000E-3	118.088E-12	1.74214E+0	-603.640E-3	118.231E-12	1.73956E+0	-594.018E-3
480.000E-3	119.504E-12	1.77922E+0	-606.214E-3	119.229E-12	1.77645E+0	-606.155E-3
482.000E-3	120.386E-12	1.81396E+0	-613.721E-3	120.214E-12	1.80767E+0	-611.310E-3
484.000E-3	120.630E-12	1.83813E+0	-619.053E-3	121.138E-12	1.83141E+0	-609.748E-3
486.000E-3	122.497E-12	1.85180E+0	-606.823E-3	122.049E-12	1.84902E+0	-599.840E-3
488.000E-3	122.869E-12	1.85908E+0	-585.772E-3	122.910E-12	1.86478E+0	-581.085E-3
490.000E-3	123.761E-12	1.87828E+0	-556.085E-3	123.780E-12	1.88315E+0	-558.410E-3
492.000E-3	124.374E-12	1.90581E+0	-528.812E-3	124.640E-12	1.90415E+0	-541.108E-3
494.000E-3	125.786E-12	1.93071E+0	-521.050E-3	125.701E-12	1.92363E+0	-535.886E-3
496.000E-3	126.569E-12	1.94327E+0	-540.626E-3	126.818E-12	1.93706E+0	-542.406E-3
498.000E-3	128.380E-12	1.94591E+0	-560.952E-3	127.862E-12	1.94370E+0	-554.370E-3
500.000E-3	128.816E-12	1.94617E+0	-566.782E-3	128.816E-12	1.94617E+0	-566.782E-3
