Experiment	bias spectroscopy	
Date	18.08.2023 15:47:02	
User		
X (m)	-198.295E-9	
Y (m)	67.532E-9	
Z (m)	-157.169E-9	
Z offset (m)	0E+0	
Settling time (s)	100E-6	
Integration time (s)	25E-3	
Z-Ctrl hold	TRUE	
Final Z (m)	N/A	
Filter type	Gaussian	
Order	2	
Cutoff frq		

[DATA]
Bias calc (V)	Current (A)	Lock In X (V)	Lock In Y (V)	Current (A) [filt]	Lock In X (V) [filt]	Lock In Y (V) [filt]
-700.000E-3	-201.857E-12	207.332E-3	-158.680E-3	-201.857E-12	207.332E-3	-158.680E-3
-696.500E-3	-202.908E-12	199.361E-3	-162.723E-3	-201.640E-12	201.224E-3	-162.762E-3
-693.000E-3	-201.406E-12	194.092E-3	-167.968E-3	-201.251E-12	198.228E-3	-166.065E-3
-689.500E-3	-199.059E-12	194.380E-3	-168.617E-3	-200.863E-12	201.458E-3	-168.798E-3
-686.000E-3	-201.351E-12	206.111E-3	-169.954E-3	-200.491E-12	212.069E-3	-172.154E-3
-682.500E-3	-201.537E-12	228.539E-3	-174.679E-3	-199.656E-12	228.563E-3	-177.558E-3
-679.000E-3	-198.055E-12	248.817E-3	-184.461E-3	-198.653E-12	247.858E-3	-185.068E-3
-675.500E-3	-194.943E-12	267.462E-3	-195.809E-3	-197.734E-12	267.609E-3	-192.720E-3
-672.000E-3	-199.326E-12	286.399E-3	-201.083E-3	-197.753E-12	286.413E-3	-198.670E-3
-668.500E-3	-197.465E-12	307.080E-3	-202.148E-3	-198.626E-12	303.654E-3	-202.668E-3
-665.000E-3	-199.735E-12	320.413E-3	-205.012E-3	-199.844E-12	319.397E-3	-205.329E-3
-661.500E-3	-201.635E-12	331.586E-3	-209.331E-3	-200.502E-12	335.258E-3	-206.299E-3
-658.000E-3	-201.904E-12	349.905E-3	-208.696E-3	-200.541E-12	353.175E-3	-205.969E-3
-654.500E-3	-199.114E-12	373.840E-3	-199.859E-3	-199.807E-12	373.978E-3	-206.163E-3
-651.000E-3	-198.348E-12	396.783E-3	-205.329E-3	-198.551E-12	396.477E-3	-209.481E-3
-647.500E-3	-198.515E-12	419.426E-3	-216.535E-3	-197.002E-12	417.476E-3	-215.233E-3
-644.000E-3	-194.633E-12	441.556E-3	-226.992E-3	-195.257E-12	433.812E-3	-219.776E-3
-640.500E-3	-192.944E-12	448.639E-3	-223.143E-3	-194.088E-12	443.629E-3	-219.842E-3
-637.000E-3	-191.863E-12	448.853E-3	-214.344E-3	-193.861E-12	447.019E-3	-216.442E-3
-633.500E-3	-196.332E-12	447.541E-3	-210.676E-3	-194.325E-12	446.815E-3	-212.561E-3
-630.000E-3	-195.228E-12	442.966E-3	-209.617E-3	-194.752E-12	447.074E-3	-210.131E-3
-626.500E-3	-193.557E-12	446.852E-3	-209.566E-3	-194.975E-12	449.856E-3	-209.400E-3
-623.000E-3	-195.534E-12	455.943E-3	-207.355E-3	-195.017E-12	453.887E-3	-209.983E-3
-619.500E-3	-195.751E-12	462.037E-3	-211.545E-3	-195.173E-12	455.587E-3	-211.341E-3
-616.000E-3	-194.939E-12	456.861E-3	-215.065E-3	-195.174E-12	451.917E-3	-212.510E-3
-612.500E-3	-194.947E-12	443.339E-3	-213.114E-3	-194.815E-12	443.110E-3	-213.350E-3
-609.000E-3	-194.712E-12	431.185E-3	-211.486E-3	-194.658E-12	431.757E-3	-214.526E-3
-605.500E-3	-193.480E-12	419.696E-3	-216.116E-3	-194.819E-12	419.419E-3	-217.499E-3
-602.000E-3	-196.113E-12	409.223E-3	-221.881E-3	-195.149E-12	405.376E-3	-221.466E-3
-598.500E-3	-195.820E-12	391.424E-3	-229.098E-3	-195.462E-12	388.485E-3	-225.281E-3
-595.000E-3	-195.079E-12	368.325E-3	-225.493E-3	-195.643E-12	369.002E-3	-228.988E-3
-591.500E-3	-195.904E-12	348.060E-3	-230.817E-3	-195.604E-12	348.395E-3	-234.414E-3
-588.000E-3	-195.782E-12	327.484E-3	-241.489E-3	-195.561E-12	329.085E-3	-242.196E-3
-584.500E-3	-195.311E-12	308.351E-3	-253.410E-3	-195.424E-12	313.269E-3	-250.190E-3
-581.000E-3	-195.247E-12	297.917E-3	-261.168E-3	-195.029E-12	302.413E-3	-254.245E-3
-577.500E-3	-194.869E-12	294.254E-3	-255.988E-3	-194.281E-12	296.536E-3	-252.797E-3
-574.000E-3	-193.428E-12	294.265E-3	-246.262E-3	-193.160E-12	293.784E-3	-247.718E-3
-570.500E-3	-191.413E-12	292.809E-3	-239.626E-3	-192.220E-12	291.966E-3	-242.727E-3
-567.000E-3	-190.425E-12	289.409E-3	-237.851E-3	-191.982E-12	289.998E-3	-240.588E-3
-563.500E-3	-193.012E-12	287.936E-3	-240.737E-3	-192.193E-12	286.110E-3	-240.063E-3
-560.000E-3	-193.791E-12	285.742E-3	-244.071E-3	-192.381E-12	277.146E-3	-238.296E-3
-556.500E-3	-191.110E-12	268.244E-3	-234.867E-3	-192.511E-12	260.276E-3	-234.027E-3
-553.000E-3	-191.860E-12	237.523E-3	-225.135E-3	-192.895E-12	235.859E-3	-228.829E-3
-549.500E-3	-194.485E-12	205.211E-3	-222.595E-3	-193.657E-12	207.391E-3	-225.353E-3
-546.000E-3	-195.221E-12	177.773E-3	-224.046E-3	-194.446E-12	179.178E-3	-224.457E-3
-542.500E-3	-194.445E-12	151.374E-3	-226.561E-3	-194.138E-12	153.650E-3	-224.319E-3
-539.000E-3	-194.844E-12	128.400E-3	-224.380E-3	-193.048E-12	132.288E-3	-222.722E-3
-535.500E-3	-189.173E-12	110.659E-3	-220.394E-3	-191.998E-12	116.707E-3	-220.453E-3
-532.000E-3	-191.236E-12	102.755E-3	-213.688E-3	-191.616E-12	108.063E-3	-220.290E-3
-528.500E-3	-192.815E-12	103.260E-3	-220.510E-3	-191.823E-12	105.081E-3	-224.158E-3
-525.000E-3	-192.051E-12	106.827E-3	-233.458E-3	-192.506E-12	104.583E-3	-230.019E-3
-521.500E-3	-192.533E-12	105.679E-3	-240.312E-3	-193.267E-12	103.519E-3	-233.439E-3
-518.000E-3	-194.298E-12	100.797E-3	-235.344E-3	-194.006E-12	101.961E-3	-230.970E-3
-514.500E-3	-196.104E-12	96.6644E-3	-223.614E-3	-194.612E-12	102.792E-3	-223.593E-3
-511.000E-3	-193.846E-12	103.603E-3	-212.390E-3	-194.658E-12	109.605E-3	-214.050E-3
-507.500E-3	-194.924E-12	119.065E-3	-205.660E-3	-194.458E-12	123.414E-3	-205.455E-3
-504.000E-3	-193.602E-12	142.095E-3	-194.783E-3	-193.880E-12	142.100E-3	-200.052E-3
-500.500E-3	-194.659E-12	164.375E-3	-194.651E-3	-192.848E-12	162.200E-3	-199.299E-3
-497.000E-3	-190.808E-12	182.218E-3	-201.601E-3	-191.346E-12	180.645E-3	-202.576E-3
-493.500E-3	-188.573E-12	199.605E-3	-210.255E-3	-190.376E-12	194.922E-3	-207.418E-3
-490.000E-3	-189.408E-12	209.225E-3	-213.540E-3	-190.331E-12	204.076E-3	-210.461E-3
-486.500E-3	-192.129E-12	209.354E-3	-211.824E-3	-191.164E-12	209.872E-3	-210.350E-3
-483.000E-3	-192.276E-12	210.230E-3	-208.501E-3	-192.010E-12	217.907E-3	-208.761E-3
-479.500E-3	-192.501E-12	222.165E-3	-203.600E-3	-192.228E-12	235.725E-3	-208.073E-3
-476.000E-3	-192.596E-12	256.553E-3	-209.125E-3	-191.901E-12	267.465E-3	-209.552E-3
-472.500E-3	-190.703E-12	308.840E-3	-213.343E-3	-190.918E-12	311.840E-3	-213.108E-3
-469.000E-3	-190.903E-12	362.668E-3	-216.336E-3	-189.856E-12	365.207E-3	-218.815E-3
-465.500E-3	-186.395E-12	419.106E-3	-223.576E-3	-189.155E-12	426.014E-3	-226.007E-3
-462.000E-3	-189.800E-12	485.989E-3	-236.747E-3	-189.183E-12	496.947E-3	-233.779E-3
-458.500E-3	-190.041E-12	569.105E-3	-243.013E-3	-189.128E-12	583.158E-3	-239.720E-3
-455.000E-3	-189.874E-12	673.040E-3	-245.202E-3	-188.743E-12	687.625E-3	-242.826E-3
-451.500E-3	-186.373E-12	800.839E-3	-241.604E-3	-187.926E-12	809.228E-3	-243.898E-3
-448.000E-3	-186.882E-12	940.142E-3	-244.640E-3	-187.068E-12	943.849E-3	-244.490E-3
-444.500E-3	-188.120E-12	1.08332E+0	-246.690E-3	-186.189E-12	1.08645E+0	-245.379E-3
-441.000E-3	-184.009E-12	1.23224E+0	-244.823E-3	-185.200E-12	1.23175E+0	-248.096E-3
-437.500E-3	-183.905E-12	1.38171E+0	-248.329E-3	-184.026E-12	1.37372E+0	-254.237E-3
-434.000E-3	-183.314E-12	1.51882E+0	-262.932E-3	-182.707E-12	1.50609E+0	-264.338E-3
-430.500E-3	-181.799E-12	1.63478E+0	-279.365E-3	-181.509E-12	1.62412E+0	-275.137E-3
-427.000E-3	-179.137E-12	1.73627E+0	-289.757E-3	-180.363E-12	1.72376E+0	-281.567E-3
-423.500E-3	-179.524E-12	1.82306E+0	-285.337E-3	-179.245E-12	1.80035E+0	-281.106E-3
-420.000E-3	-179.478E-12	1.87284E+0	-274.621E-3	-177.978E-12	1.85040E+0	-275.621E-3
-416.500E-3	-175.664E-12	1.88636E+0	-266.767E-3	-176.239E-12	1.87577E+0	-268.202E-3
-413.000E-3	-174.370E-12	1.88526E+0	-262.379E-3	-174.599E-12	1.88451E+0	-260.249E-3
-409.500E-3	-171.615E-12	1.88577E+0	-253.703E-3	-173.605E-12	1.88725E+0	-252.040E-3
-406.000E-3	-174.405E-12	1.88758E+0	-240.150E-3	-173.256E-12	1.89166E+0	-245.300E-3
-402.500E-3	-173.644E-12	1.89568E+0	-236.076E-3	-172.610E-12	1.90198E+0	-242.581E-3
-399.000E-3	-171.676E-12	1.91308E+0	-243.961E-3	-171.281E-12	1.92032E+0	-245.309E-3
-395.500E-3	-168.975E-12	1.94231E+0	-251.363E-3	-169.511E-12	1.94643E+0	-253.432E-3
-392.000E-3	-166.965E-12	1.97838E+0	-260.862E-3	-167.905E-12	1.97587E+0	-265.330E-3
-388.500E-3	-167.644E-12	2.01130E+0	-280.734E-3	-166.519E-12	2.00318E+0	-278.197E-3
-385.000E-3	-164.980E-12	2.02788E+0	-295.802E-3	-165.122E-12	2.02571E+0	-288.270E-3
-381.500E-3	-163.321E-12	2.04217E+0	-297.564E-3	-163.978E-12	2.04416E+0	-292.401E-3
-378.000E-3	-162.137E-12	2.06282E+0	-291.483E-3	-163.017E-12	2.05937E+0	-291.696E-3
-374.500E-3	-163.873E-12	2.07741E+0	-284.777E-3	-162.161E-12	2.06901E+0	-290.504E-3
-371.000E-3	-160.993E-12	2.07968E+0	-290.396E-3	-161.103E-12	2.06856E+0	-292.007E-3
-367.500E-3	-158.870E-12	2.06348E+0	-297.163E-3	-159.907E-12	2.05632E+0	-294.878E-3
-364.000E-3	-159.234E-12	2.03609E+0	-301.301E-3	-158.589E-12	2.03635E+0	-294.683E-3
-360.500E-3	-157.885E-12	2.00913E+0	-294.659E-3	-157.407E-12	2.01590E+0	-288.352E-3
-357.000E-3	-155.324E-12	1.99387E+0	-275.782E-3	-156.431E-12	2.00114E+0	-278.494E-3
-353.500E-3	-155.183E-12	1.99060E+0	-261.592E-3	-155.891E-12	1.99390E+0	-270.909E-3
-350.000E-3	-156.204E-12	1.99135E+0	-264.623E-3	-155.720E-12	1.99152E+0	-270.523E-3
-346.500E-3	-156.364E-12	1.99311E+0	-275.475E-3	-155.197E-12	1.98921E+0	-278.150E-3
-343.000E-3	-154.579E-12	1.98816E+0	-289.728E-3	-153.951E-12	1.98326E+0	-290.504E-3
-339.500E-3	-151.216E-12	1.97493E+0	-306.102E-3	-152.084E-12	1.97249E+0	-303.479E-3
-336.000E-3	-150.674E-12	1.95866E+0	-317.290E-3	-150.377E-12	1.95827E+0	-314.971E-3
-332.500E-3	-147.867E-12	1.94137E+0	-324.226E-3	-149.229E-12	1.94462E+0	-324.046E-3
-329.000E-3	-148.909E-12	1.92786E+0	-333.096E-3	-148.418E-12	1.93675E+0	-328.911E-3
-325.500E-3	-148.561E-12	1.92885E+0	-336.643E-3	-147.378E-12	1.93902E+0	-327.284E-3
-322.000E-3	-145.688E-12	1.94594E+0	-322.709E-3	-146.049E-12	1.95274E+0	-318.502E-3
-318.500E-3	-144.006E-12	1.97332E+0	-302.280E-3	-144.452E-12	1.97556E+0	-305.054E-3
-315.000E-3	-143.183E-12	2.00309E+0	-288.409E-3	-142.761E-12	2.00338E+0	-291.329E-3
-311.500E-3	-141.629E-12	2.03275E+0	-278.868E-3	-141.281E-12	2.03329E+0	-280.304E-3
-308.000E-3	-138.446E-12	2.06304E+0	-271.077E-3	-140.140E-12	2.06414E+0	-272.996E-3
-304.500E-3	-139.584E-12	2.09568E+0	-264.605E-3	-139.383E-12	2.09431E+0	-269.148E-3
-301.000E-3	-139.722E-12	2.12789E+0	-268.126E-3	-138.668E-12	2.12087E+0	-266.411E-3
-297.500E-3	-137.854E-12	2.14732E+0	-269.852E-3	-137.726E-12	2.14145E+0	-260.542E-3
-294.000E-3	-135.807E-12	2.15702E+0	-253.625E-3	-136.517E-12	2.15689E+0	-248.361E-3
-290.500E-3	-135.355E-12	2.16706E+0	-229.757E-3	-135.294E-12	2.17037E+0	-230.873E-3
-287.000E-3	-134.871E-12	2.18428E+0	-208.173E-3	-134.115E-12	2.18453E+0	-213.806E-3
-283.500E-3	-132.375E-12	2.20123E+0	-194.816E-3	-132.826E-12	2.19866E+0	-203.892E-3
-280.000E-3	-131.429E-12	2.21438E+0	-195.729E-3	-131.347E-12	2.21042E+0	-203.813E-3
-276.500E-3	-130.149E-12	2.22044E+0	-210.916E-3	-129.810E-12	2.21884E+0	-211.606E-3
-273.000E-3	-127.964E-12	2.22409E+0	-225.433E-3	-128.346E-12	2.22515E+0	-223.068E-3
-269.500E-3	-126.802E-12	2.23042E+0	-234.612E-3	-126.806E-12	2.23213E+0	-234.495E-3
-266.000E-3	-125.751E-12	2.23762E+0	-245.268E-3	-125.356E-12	2.24315E+0	-244.276E-3
-262.500E-3	-123.258E-12	2.25384E+0	-254.137E-3	-124.010E-12	2.26025E+0	-251.590E-3
-259.000E-3	-123.053E-12	2.28158E+0	-260.004E-3	-122.611E-12	2.28270E+0	-255.606E-3
-255.500E-3	-121.603E-12	2.31027E+0	-257.213E-3	-120.952E-12	2.30672E+0	-255.487E-3
-252.000E-3	-119.039E-12	2.33356E+0	-253.691E-3	-119.177E-12	2.32726E+0	-253.581E-3
-248.500E-3	-116.475E-12	2.34632E+0	-246.384E-3	-117.606E-12	2.34130E+0	-253.206E-3
-245.000E-3	-116.259E-12	2.35144E+0	-254.404E-3	-116.495E-12	2.34921E+0	-256.842E-3
-241.500E-3	-116.500E-12	2.35364E+0	-264.182E-3	-115.649E-12	2.35276E+0	-263.999E-3
-238.000E-3	-114.624E-12	2.35555E+0	-273.223E-3	-114.668E-12	2.35409E+0	-272.829E-3
-234.500E-3	-113.384E-12	2.35367E+0	-281.906E-3	-113.358E-12	2.35391E+0	-281.587E-3
-231.000E-3	-112.032E-12	2.35458E+0	-289.271E-3	-111.850E-12	2.35139E+0	-289.458E-3
-227.500E-3	-110.266E-12	2.34993E+0	-299.565E-3	-110.117E-12	2.34560E+0	-295.862E-3
-224.000E-3	-108.682E-12	2.33681E+0	-300.790E-3	-108.100E-12	2.33705E+0	-300.496E-3
-220.500E-3	-105.429E-12	2.32530E+0	-303.272E-3	-105.976E-12	2.32885E+0	-303.088E-3
-217.000E-3	-103.650E-12	2.31773E+0	-307.018E-3	-104.194E-12	2.32652E+0	-303.731E-3
-213.500E-3	-102.366E-12	2.32412E+0	-302.650E-3	-102.813E-12	2.33484E+0	-302.965E-3
-210.000E-3	-102.437E-12	2.34781E+0	-300.994E-3	-101.620E-12	2.35484E+0	-301.692E-3
-206.500E-3	-100.438E-12	2.38231E+0	-299.107E-3	-100.190E-12	2.38278E+0	-301.011E-3
-203.000E-3	-98.2893E-12	2.41792E+0	-301.704E-3	-98.6277E-12	2.41204E+0	-301.750E-3
-199.500E-3	-96.6034E-12	2.44235E+0	-303.121E-3	-97.0996E-12	2.43715E+0	-303.037E-3
-196.000E-3	-96.1901E-12	2.45904E+0	-305.328E-3	-95.7375E-12	2.45594E+0	-303.936E-3
-192.500E-3	-94.5166E-12	2.47223E+0	-304.708E-3	-94.3544E-12	2.46885E+0	-304.019E-3
-189.000E-3	-92.7063E-12	2.47982E+0	-302.476E-3	-92.7131E-12	2.47756E+0	-304.223E-3
-185.500E-3	-91.2672E-12	2.48371E+0	-303.539E-3	-90.9166E-12	2.48345E+0	-305.969E-3
-182.000E-3	-88.4978E-12	2.48820E+0	-308.289E-3	-89.0751E-12	2.48757E+0	-309.041E-3
-178.500E-3	-87.6953E-12	2.49155E+0	-316.317E-3	-87.5022E-12	2.49062E+0	-310.328E-3
-175.000E-3	-85.2936E-12	2.49332E+0	-313.896E-3	-86.2366E-12	2.49351E+0	-305.810E-3
-171.500E-3	-85.7804E-12	2.49444E+0	-297.597E-3	-85.1941E-12	2.49881E+0	-294.587E-3
-168.000E-3	-84.4162E-12	2.50153E+0	-276.493E-3	-84.0565E-12	2.51039E+0	-279.643E-3
-164.500E-3	-82.5357E-12	2.52383E+0	-262.098E-3	-82.6222E-12	2.53067E+0	-265.566E-3
-161.000E-3	-81.4115E-12	2.55689E+0	-253.085E-3	-80.6602E-12	2.55914E+0	-255.481E-3
-157.500E-3	-78.4644E-12	2.59170E+0	-246.250E-3	-78.5739E-12	2.59296E+0	-250.088E-3
-154.000E-3	-75.5404E-12	2.62869E+0	-246.517E-3	-76.7217E-12	2.62922E+0	-248.578E-3
-150.500E-3	-75.3241E-12	2.66622E+0	-249.727E-3	-75.0789E-12	2.66663E+0	-250.434E-3
-147.000E-3	-74.5120E-12	2.70409E+0	-252.167E-3	-73.5700E-12	2.70498E+0	-255.279E-3
-143.500E-3	-71.2501E-12	2.74369E+0	-261.169E-3	-71.9841E-12	2.74375E+0	-262.988E-3
-140.000E-3	-70.2366E-12	2.78378E+0	-271.784E-3	-70.3397E-12	2.78228E+0	-272.757E-3
-136.500E-3	-68.9871E-12	2.82063E+0	-285.484E-3	-68.7607E-12	2.81994E+0	-282.510E-3
-133.000E-3	-67.3833E-12	2.85689E+0	-293.583E-3	-67.1407E-12	2.85577E+0	-289.089E-3
-129.500E-3	-65.4473E-12	2.89267E+0	-295.029E-3	-65.3397E-12	2.88813E+0	-290.670E-3
-126.000E-3	-63.0610E-12	2.92100E+0	-289.234E-3	-63.4014E-12	2.91554E+0	-287.792E-3
-122.500E-3	-61.8979E-12	2.93986E+0	-280.877E-3	-61.4530E-12	2.93772E+0	-283.801E-3
-119.000E-3	-59.1965E-12	2.95624E+0	-277.399E-3	-59.5395E-12	2.95613E+0	-282.349E-3
-115.500E-3	-57.6218E-12	2.97314E+0	-282.577E-3	-57.6832E-12	2.97285E+0	-284.800E-3
-112.000E-3	-56.0172E-12	2.98945E+0	-291.551E-3	-55.7951E-12	2.98863E+0	-289.541E-3
-108.500E-3	-53.9586E-12	3.00507E+0	-296.138E-3	-53.9291E-12	3.00363E+0	-293.858E-3
-105.000E-3	-51.8109E-12	3.01680E+0	-296.997E-3	-51.9873E-12	3.01977E+0	-296.371E-3
-101.500E-3	-50.2204E-12	3.03232E+0	-297.178E-3	-50.0337E-12	3.04137E+0	-298.009E-3
-98.0000E-3	-48.0042E-12	3.06273E+0	-298.272E-3	-48.0712E-12	3.07201E+0	-300.056E-3
-94.5000E-3	-46.1357E-12	3.10908E+0	-303.720E-3	-46.0859E-12	3.11122E+0	-301.381E-3
-91.0000E-3	-44.0615E-12	3.15803E+0	-306.299E-3	-44.0427E-12	3.15298E+0	-299.064E-3
-87.5000E-3	-42.0407E-12	3.19951E+0	-295.399E-3	-41.9940E-12	3.18889E+0	-291.569E-3
-84.0000E-3	-39.8372E-12	3.22390E+0	-278.094E-3	-39.9419E-12	3.21285E+0	-280.404E-3
-80.5000E-3	-37.9145E-12	3.23107E+0	-266.354E-3	-37.9309E-12	3.22387E+0	-269.237E-3
-77.0000E-3	-35.9557E-12	3.22730E+0	-258.788E-3	-35.9458E-12	3.22517E+0	-261.127E-3
-73.5000E-3	-34.0117E-12	3.22132E+0	-254.284E-3	-34.0149E-12	3.22106E+0	-256.707E-3
-70.0000E-3	-31.9546E-12	3.21634E+0	-253.940E-3	-32.0812E-12	3.21451E+0	-255.463E-3
-66.5000E-3	-30.3768E-12	3.20709E+0	-255.097E-3	-30.1975E-12	3.20581E+0	-256.542E-3
-63.0000E-3	-28.0720E-12	3.19800E+0	-259.551E-3	-28.3429E-12	3.19310E+0	-259.313E-3
-59.5000E-3	-26.6761E-12	3.18103E+0	-261.864E-3	-26.5647E-12	3.17382E+0	-262.422E-3
-56.0000E-3	-24.6902E-12	3.15247E+0	-267.560E-3	-24.8235E-12	3.14766E+0	-264.324E-3
-52.5000E-3	-23.2274E-12	3.11495E+0	-266.461E-3	-23.0893E-12	3.11839E+0	-263.014E-3
-49.0000E-3	-21.3941E-12	3.08283E+0	-260.982E-3	-21.3117E-12	3.09200E+0	-258.434E-3
-45.5000E-3	-19.3270E-12	3.06825E+0	-249.473E-3	-19.5301E-12	3.07187E+0	-252.366E-3
-42.0000E-3	-17.8553E-12	3.05818E+0	-244.356E-3	-17.6967E-12	3.05709E+0	-247.663E-3
-38.5000E-3	-15.9844E-12	3.04443E+0	-244.850E-3	-15.8498E-12	3.04442E+0	-245.635E-3
-35.0000E-3	-13.7422E-12	3.03156E+0	-245.457E-3	-13.9773E-12	3.03148E+0	-245.638E-3
-31.5000E-3	-12.2235E-12	3.01863E+0	-247.010E-3	-12.0968E-12	3.01781E+0	-246.140E-3
-28.0000E-3	-10.2026E-12	3.00436E+0	-246.178E-3	-10.2562E-12	3.00336E+0	-246.540E-3
-24.5000E-3	-8.39195E-12	2.98833E+0	-246.429E-3	-8.44656E-12	2.98797E+0	-247.436E-3
-21.0000E-3	-6.69761E-12	2.97195E+0	-247.851E-3	-6.65801E-12	2.97196E+0	-249.927E-3
-17.5000E-3	-4.80304E-12	2.95553E+0	-252.390E-3	-4.89866E-12	2.95611E+0	-254.957E-3
-14.0000E-3	-3.26201E-12	2.93968E+0	-261.509E-3	-3.14598E-12	2.94137E+0	-261.694E-3
-10.5000E-3	-1.32171E-12	2.92670E+0	-271.633E-3	-1.40189E-12	2.92861E+0	-267.585E-3
-7.00000E-3	367.047E-15	2.91652E+0	-274.693E-3	342.521E-15	2.91766E+0	-270.389E-3
-3.50000E-3	1.97433E-12	2.90910E+0	-269.594E-3	2.08130E-12	2.90737E+0	-270.025E-3
0.00000E+0	3.94901E-12	2.89777E+0	-266.618E-3	3.80427E-12	2.89690E+0	-268.281E-3
3.50000E-3	5.45025E-12	2.88426E+0	-266.917E-3	5.52121E-12	2.88673E+0	-266.529E-3
7.00000E-3	7.23750E-12	2.87585E+0	-266.497E-3	7.20795E-12	2.87756E+0	-264.683E-3
10.5000E-3	8.95596E-12	2.87071E+0	-262.286E-3	8.88857E-12	2.86918E+0	-262.717E-3
14.0000E-3	10.4071E-12	2.86235E+0	-258.163E-3	10.5815E-12	2.86026E+0	-261.727E-3
17.5000E-3	12.4243E-12	2.85029E+0	-261.329E-3	12.2611E-12	2.84960E+0	-262.381E-3
21.0000E-3	13.9399E-12	2.83794E+0	-266.309E-3	13.9392E-12	2.83690E+0	-263.011E-3
24.5000E-3	15.4936E-12	2.82428E+0	-265.952E-3	15.5964E-12	2.82248E+0	-261.351E-3
28.0000E-3	17.3860E-12	2.80701E+0	-256.234E-3	17.2148E-12	2.80743E+0	-256.690E-3
31.5000E-3	18.7667E-12	2.78982E+0	-249.208E-3	18.8020E-12	2.79368E+0	-250.612E-3
35.0000E-3	20.3831E-12	2.77967E+0	-244.544E-3	20.3672E-12	2.78275E+0	-245.368E-3
38.5000E-3	21.8563E-12	2.77505E+0	-240.037E-3	21.9419E-12	2.77342E+0	-242.964E-3
42.0000E-3	23.5409E-12	2.76818E+0	-239.899E-3	23.5441E-12	2.76212E+0	-244.135E-3
45.5000E-3	25.2649E-12	2.75049E+0	-247.820E-3	25.1140E-12	2.74604E+0	-249.097E-3
49.0000E-3	26.6440E-12	2.72534E+0	-256.111E-3	26.7231E-12	2.72519E+0	-256.547E-3
52.5000E-3	28.0533E-12	2.70195E+0	-266.252E-3	28.3688E-12	2.70102E+0	-263.336E-3
56.0000E-3	30.3916E-12	2.67744E+0	-272.311E-3	30.0172E-12	2.67542E+0	-266.072E-3
59.5000E-3	31.6993E-12	2.64744E+0	-267.223E-3	31.6473E-12	2.65058E+0	-263.459E-3
63.0000E-3	32.9688E-12	2.62310E+0	-256.260E-3	33.2356E-12	2.62959E+0	-256.553E-3
66.5000E-3	34.9606E-12	2.60904E+0	-246.933E-3	34.8042E-12	2.61597E+0	-249.028E-3
70.0000E-3	36.4049E-12	2.60508E+0	-239.368E-3	36.3221E-12	2.61135E+0	-245.207E-3
73.5000E-3	37.9806E-12	2.61130E+0	-241.669E-3	37.8499E-12	2.61433E+0	-247.993E-3
77.0000E-3	38.8219E-12	2.62163E+0	-253.861E-3	39.2952E-12	2.62134E+0	-257.480E-3
80.5000E-3	41.3854E-12	2.63197E+0	-272.080E-3	40.7362E-12	2.62804E+0	-270.271E-3
84.0000E-3	41.8305E-12	2.63552E+0	-287.987E-3	42.2054E-12	2.63102E+0	-280.404E-3
87.5000E-3	43.4631E-12	2.63180E+0	-291.186E-3	43.8413E-12	2.63027E+0	-282.991E-3
91.0000E-3	45.6815E-12	2.62447E+0	-281.132E-3	45.6055E-12	2.62927E+0	-277.080E-3
94.5000E-3	47.6867E-12	2.62560E+0	-264.982E-3	47.4940E-12	2.63215E+0	-265.849E-3
98.0000E-3	49.3037E-12	2.63846E+0	-250.904E-3	49.3160E-12	2.63938E+0	-254.447E-3
101.500E-3	51.0073E-12	2.65318E+0	-242.155E-3	51.0004E-12	2.64768E+0	-246.764E-3
105.000E-3	52.8531E-12	2.65677E+0	-241.110E-3	52.5316E-12	2.65271E+0	-244.653E-3
108.500E-3	53.9650E-12	2.65512E+0	-244.283E-3	54.0033E-12	2.65205E+0	-247.636E-3
112.000E-3	55.0778E-12	2.64981E+0	-254.104E-3	55.4790E-12	2.64596E+0	-253.893E-3
115.500E-3	57.2636E-12	2.63732E+0	-262.356E-3	56.8719E-12	2.63546E+0	-260.841E-3
119.000E-3	58.6221E-12	2.62359E+0	-268.528E-3	58.2141E-12	2.62017E+0	-267.232E-3
122.500E-3	58.8072E-12	2.60551E+0	-271.268E-3	59.4820E-12	2.59821E+0	-272.982E-3
126.000E-3	60.9982E-12	2.57600E+0	-278.612E-3	60.6531E-12	2.56859E+0	-278.483E-3
129.500E-3	62.1457E-12	2.53253E+0	-285.776E-3	61.8719E-12	2.53382E+0	-282.548E-3
133.000E-3	62.4938E-12	2.49160E+0	-287.920E-3	63.2876E-12	2.49864E+0	-283.737E-3
136.500E-3	64.7254E-12	2.46571E+0	-282.015E-3	64.9013E-12	2.46565E+0	-282.017E-3
140.000E-3	67.1080E-12	2.43838E+0	-276.820E-3	66.5383E-12	2.43389E+0	-278.379E-3
143.500E-3	68.5604E-12	2.40137E+0	-276.770E-3	68.0435E-12	2.40145E+0	-272.608E-3
147.000E-3	68.5918E-12	2.36544E+0	-268.784E-3	69.4702E-12	2.36921E+0	-263.813E-3
150.500E-3	70.7767E-12	2.33547E+0	-251.066E-3	70.9726E-12	2.34103E+0	-252.773E-3
154.000E-3	73.3806E-12	2.31368E+0	-236.847E-3	72.5394E-12	2.32021E+0	-243.736E-3
157.500E-3	73.8594E-12	2.30205E+0	-233.234E-3	74.0894E-12	2.30727E+0	-241.065E-3
161.000E-3	75.1372E-12	2.29893E+0	-244.129E-3	75.3826E-12	2.30085E+0	-244.906E-3
164.500E-3	77.3094E-12	2.29733E+0	-254.796E-3	76.3507E-12	2.29900E+0	-251.268E-3
168.000E-3	77.1968E-12	2.29812E+0	-258.848E-3	77.2417E-12	2.29966E+0	-255.626E-3
171.500E-3	77.0142E-12	2.30254E+0	-258.777E-3	78.2720E-12	2.30031E+0	-256.225E-3
175.000E-3	79.8064E-12	2.30345E+0	-253.454E-3	79.7317E-12	2.29851E+0	-253.504E-3
178.500E-3	81.6812E-12	2.29521E+0	-251.027E-3	81.5730E-12	2.29285E+0	-248.631E-3
182.000E-3	83.6894E-12	2.28391E+0	-242.372E-3	83.4923E-12	2.28400E+0	-242.885E-3
185.500E-3	85.0971E-12	2.27326E+0	-235.007E-3	85.0005E-12	2.27466E+0	-238.569E-3
189.000E-3	87.0791E-12	2.26385E+0	-233.147E-3	86.0094E-12	2.26785E+0	-237.788E-3
192.500E-3	86.4324E-12	2.26121E+0	-239.218E-3	86.8427E-12	2.26466E+0	-241.373E-3
196.000E-3	86.4574E-12	2.26529E+0	-248.676E-3	87.9404E-12	2.26394E+0	-247.466E-3
199.500E-3	90.0192E-12	2.26582E+0	-255.546E-3	89.4357E-12	2.26339E+0	-252.127E-3
203.000E-3	91.6241E-12	2.26214E+0	-258.851E-3	91.1764E-12	2.26174E+0	-251.752E-3
206.500E-3	92.5246E-12	2.25755E+0	-248.809E-3	92.7874E-12	2.26028E+0	-245.008E-3
210.000E-3	94.2734E-12	2.25732E+0	-233.731E-3	94.0235E-12	2.26192E+0	-233.937E-3
213.500E-3	95.5870E-12	2.26451E+0	-218.703E-3	95.0553E-12	2.26809E+0	-222.875E-3
217.000E-3	95.6068E-12	2.27796E+0	-210.351E-3	96.1241E-12	2.27671E+0	-216.561E-3
220.500E-3	96.6280E-12	2.29028E+0	-211.808E-3	97.5066E-12	2.28251E+0	-216.571E-3
224.000E-3	99.4509E-12	2.28976E+0	-221.801E-3	99.2475E-12	2.27968E+0	-221.081E-3
227.500E-3	101.720E-12	2.27368E+0	-229.485E-3	100.981E-12	2.26550E+0	-226.626E-3
231.000E-3	102.647E-12	2.24423E+0	-231.696E-3	102.368E-12	2.24294E+0	-232.191E-3
234.500E-3	103.039E-12	2.21217E+0	-233.148E-3	103.521E-12	2.21895E+0	-239.058E-3
238.000E-3	104.476E-12	2.19268E+0	-247.632E-3	104.748E-12	2.20036E+0	-248.254E-3
241.500E-3	106.458E-12	2.18470E+0	-262.133E-3	106.108E-12	2.19094E+0	-257.541E-3
245.000E-3	107.582E-12	2.18550E+0	-269.100E-3	107.492E-12	2.19070E+0	-263.711E-3
248.500E-3	108.558E-12	2.19448E+0	-265.959E-3	108.655E-12	2.19725E+0	-264.930E-3
252.000E-3	110.197E-12	2.20759E+0	-263.723E-3	109.547E-12	2.20718E+0	-262.277E-3
255.500E-3	110.124E-12	2.22032E+0	-258.656E-3	110.526E-12	2.21686E+0	-257.235E-3
259.000E-3	110.620E-12	2.22680E+0	-251.396E-3	111.804E-12	2.22343E+0	-251.433E-3
262.500E-3	114.085E-12	2.22837E+0	-243.272E-3	113.354E-12	2.22651E+0	-247.103E-3
266.000E-3	115.357E-12	2.22625E+0	-241.234E-3	115.020E-12	2.22791E+0	-246.428E-3
269.500E-3	116.139E-12	2.22760E+0	-249.303E-3	116.455E-12	2.23052E+0	-248.837E-3
273.000E-3	118.113E-12	2.23323E+0	-256.170E-3	117.621E-12	2.23474E+0	-252.185E-3
276.500E-3	118.500E-12	2.24393E+0	-253.710E-3	118.793E-12	2.23762E+0	-254.683E-3
280.000E-3	119.820E-12	2.24302E+0	-255.171E-3	119.968E-12	2.23542E+0	-256.136E-3
283.500E-3	121.506E-12	2.22832E+0	-258.525E-3	121.222E-12	2.22674E+0	-256.528E-3
287.000E-3	122.079E-12	2.21395E+0	-258.804E-3	122.455E-12	2.21250E+0	-255.871E-3
290.500E-3	124.321E-12	2.19785E+0	-251.967E-3	123.639E-12	2.19496E+0	-254.230E-3
294.000E-3	124.169E-12	2.17552E+0	-251.246E-3	125.032E-12	2.17618E+0	-253.323E-3
297.500E-3	126.098E-12	2.15468E+0	-252.718E-3	126.458E-12	2.15865E+0	-254.033E-3
301.000E-3	129.581E-12	2.13980E+0	-257.636E-3	127.917E-12	2.14573E+0	-254.971E-3
304.500E-3	127.806E-12	2.13444E+0	-257.943E-3	129.341E-12	2.13956E+0	-253.404E-3
308.000E-3	131.227E-12	2.13705E+0	-249.927E-3	130.886E-12	2.14017E+0	-247.809E-3
311.500E-3	132.254E-12	2.14315E+0	-240.152E-3	132.530E-12	2.14589E+0	-238.891E-3
315.000E-3	134.885E-12	2.15487E+0	-226.981E-3	134.019E-12	2.15404E+0	-229.761E-3
318.500E-3	135.777E-12	2.16452E+0	-218.259E-3	135.110E-12	2.16164E+0	-223.082E-3
322.000E-3	134.476E-12	2.16959E+0	-219.509E-3	136.066E-12	2.16612E+0	-219.078E-3
325.500E-3	137.973E-12	2.16977E+0	-218.437E-3	137.143E-12	2.16640E+0	-216.240E-3
329.000E-3	138.148E-12	2.16357E+0	-213.097E-3	138.390E-12	2.16309E+0	-212.775E-3
332.500E-3	139.775E-12	2.15834E+0	-207.983E-3	139.575E-12	2.15776E+0	-209.108E-3
336.000E-3	140.911E-12	2.15117E+0	-203.322E-3	140.506E-12	2.15298E+0	-207.918E-3
339.500E-3	140.827E-12	2.14581E+0	-206.642E-3	141.409E-12	2.15193E+0	-211.354E-3
343.000E-3	142.633E-12	2.15116E+0	-217.796E-3	142.125E-12	2.15646E+0	-219.532E-3
346.500E-3	143.093E-12	2.16534E+0	-230.898E-3	143.013E-12	2.16524E+0	-230.696E-3
350.000E-3	142.661E-12	2.17988E+0	-243.684E-3	144.434E-12	2.17299E+0	-241.603E-3
353.500E-3	146.533E-12	2.18321E+0	-254.013E-3	146.302E-12	2.17393E+0	-249.723E-3
357.000E-3	149.447E-12	2.17066E+0	-256.143E-3	148.375E-12	2.16684E+0	-253.804E-3
360.500E-3	149.930E-12	2.15159E+0	-256.078E-3	150.135E-12	2.15610E+0	-254.006E-3
364.000E-3	151.787E-12	2.14106E+0	-252.313E-3	151.327E-12	2.14786E+0	-250.894E-3
367.500E-3	152.252E-12	2.14224E+0	-247.428E-3	152.248E-12	2.14512E+0	-245.438E-3
371.000E-3	152.955E-12	2.14754E+0	-238.150E-3	153.161E-12	2.14569E+0	-237.969E-3
374.500E-3	154.031E-12	2.14992E+0	-230.261E-3	154.156E-12	2.14448E+0	-229.596E-3
378.000E-3	155.181E-12	2.14365E+0	-219.428E-3	155.154E-12	2.13812E+0	-222.274E-3
381.500E-3	156.776E-12	2.12716E+0	-213.371E-3	156.518E-12	2.12717E+0	-218.809E-3
385.000E-3	156.227E-12	2.11192E+0	-216.078E-3	158.238E-12	2.11464E+0	-220.456E-3
388.500E-3	161.751E-12	2.10182E+0	-226.608E-3	160.143E-12	2.10355E+0	-226.468E-3
392.000E-3	162.418E-12	2.09366E+0	-235.359E-3	161.709E-12	2.09505E+0	-233.370E-3
395.500E-3	162.612E-12	2.08784E+0	-242.357E-3	162.879E-12	2.08794E+0	-238.149E-3
399.000E-3	163.264E-12	2.08284E+0	-240.549E-3	163.835E-12	2.07921E+0	-239.657E-3
402.500E-3	164.891E-12	2.07302E+0	-239.078E-3	164.735E-12	2.06483E+0	-239.735E-3
406.000E-3	167.159E-12	2.04976E+0	-237.037E-3	165.479E-12	2.04219E+0	-241.714E-3
409.500E-3	164.421E-12	2.01333E+0	-242.884E-3	166.287E-12	2.01182E+0	-248.108E-3
413.000E-3	166.609E-12	1.97677E+0	-258.692E-3	167.450E-12	1.97696E+0	-257.795E-3
416.500E-3	170.231E-12	1.94039E+0	-272.369E-3	168.856E-12	1.94199E+0	-267.320E-3
420.000E-3	170.554E-12	1.90510E+0	-276.823E-3	170.236E-12	1.91070E+0	-273.018E-3
423.500E-3	170.713E-12	1.87949E+0	-276.178E-3	171.286E-12	1.88502E+0	-272.980E-3
427.000E-3	172.003E-12	1.86311E+0	-271.681E-3	172.305E-12	1.86431E+0	-267.249E-3
430.500E-3	173.933E-12	1.84856E+0	-259.516E-3	173.493E-12	1.84510E+0	-256.672E-3
434.000E-3	174.799E-12	1.82801E+0	-243.099E-3	174.584E-12	1.82313E+0	-243.959E-3
437.500E-3	175.468E-12	1.79941E+0	-226.397E-3	175.341E-12	1.79635E+0	-233.072E-3
441.000E-3	176.084E-12	1.76626E+0	-222.818E-3	175.993E-12	1.76557E+0	-227.588E-3
444.500E-3	175.984E-12	1.73254E+0	-225.250E-3	176.812E-12	1.73255E+0	-226.883E-3
448.000E-3	178.067E-12	1.69958E+0	-232.516E-3	177.718E-12	1.69885E+0	-227.420E-3
451.500E-3	179.289E-12	1.66416E+0	-228.487E-3	178.409E-12	1.66549E+0	-226.341E-3
455.000E-3	178.750E-12	1.63163E+0	-220.503E-3	178.839E-12	1.63400E+0	-224.913E-3
458.500E-3	178.447E-12	1.60158E+0	-220.885E-3	179.399E-12	1.60589E+0	-226.467E-3
462.000E-3	179.731E-12	1.57966E+0	-230.260E-3	180.350E-12	1.58023E+0	-233.034E-3
465.500E-3	182.765E-12	1.56038E+0	-244.219E-3	181.536E-12	1.55334E+0	-242.781E-3
469.000E-3	182.549E-12	1.52716E+0	-255.148E-3	182.706E-12	1.52216E+0	-251.011E-3
472.500E-3	182.965E-12	1.48568E+0	-261.088E-3	183.738E-12	1.48682E+0	-253.361E-3
476.000E-3	185.437E-12	1.44741E+0	-253.563E-3	184.624E-12	1.45092E+0	-247.687E-3
479.500E-3	185.731E-12	1.41443E+0	-237.286E-3	185.515E-12	1.41775E+0	-235.108E-3
483.000E-3	185.658E-12	1.38792E+0	-217.902E-3	185.892E-12	1.38648E+0	-219.936E-3
486.500E-3	187.336E-12	1.35918E+0	-200.562E-3	185.681E-12	1.35416E+0	-207.358E-3
490.000E-3	184.262E-12	1.32024E+0	-196.122E-3	185.705E-12	1.31946E+0	-200.649E-3
493.500E-3	184.182E-12	1.28055E+0	-197.371E-3	186.687E-12	1.28395E+0	-199.603E-3
497.000E-3	189.443E-12	1.24716E+0	-202.822E-3	188.571E-12	1.25034E+0	-201.817E-3
500.500E-3	192.149E-12	1.21906E+0	-205.266E-3	190.520E-12	1.22014E+0	-204.483E-3
504.000E-3	192.226E-12	1.19135E+0	-206.892E-3	191.423E-12	1.19296E+0	-207.336E-3
507.500E-3	191.096E-12	1.16647E+0	-207.886E-3	191.376E-12	1.16869E+0	-211.903E-3
511.000E-3	190.375E-12	1.14401E+0	-216.278E-3	191.339E-12	1.14848E+0	-219.088E-3
514.500E-3	191.687E-12	1.12860E+0	-230.801E-3	191.760E-12	1.13400E+0	-227.347E-3
518.000E-3	192.854E-12	1.12180E+0	-237.842E-3	192.522E-12	1.12593E+0	-234.119E-3
521.500E-3	193.236E-12	1.12088E+0	-238.634E-3	193.187E-12	1.12383E+0	-237.193E-3
525.000E-3	194.021E-12	1.12408E+0	-239.303E-3	193.785E-12	1.12645E+0	-236.179E-3
528.500E-3	193.490E-12	1.13085E+0	-233.825E-3	194.386E-12	1.13189E+0	-232.097E-3
532.000E-3	195.863E-12	1.14004E+0	-225.813E-3	195.064E-12	1.13851E+0	-225.637E-3
535.500E-3	195.620E-12	1.14500E+0	-218.915E-3	195.815E-12	1.14551E+0	-218.088E-3
539.000E-3	196.088E-12	1.15125E+0	-208.392E-3	196.861E-12	1.15261E+0	-212.171E-3
542.500E-3	197.990E-12	1.16101E+0	-204.272E-3	198.121E-12	1.15899E+0	-210.216E-3
546.000E-3	200.197E-12	1.16720E+0	-211.243E-3	199.470E-12	1.16286E+0	-213.149E-3
549.500E-3	200.886E-12	1.16650E+0	-219.359E-3	200.636E-12	1.16305E+0	-220.086E-3
553.000E-3	201.009E-12	1.15885E+0	-228.735E-3	201.560E-12	1.16122E+0	-228.224E-3
556.500E-3	202.742E-12	1.15585E+0	-238.286E-3	202.076E-12	1.16039E+0	-234.521E-3
560.000E-3	203.345E-12	1.16189E+0	-241.281E-3	202.251E-12	1.16121E+0	-236.969E-3
563.500E-3	201.027E-12	1.16671E+0	-237.386E-3	202.322E-12	1.16082E+0	-235.766E-3
567.000E-3	202.066E-12	1.16144E+0	-229.810E-3	202.698E-12	1.15557E+0	-233.158E-3
570.500E-3	203.801E-12	1.14622E+0	-229.776E-3	203.501E-12	1.14502E+0	-230.778E-3
574.000E-3	204.972E-12	1.12946E+0	-232.344E-3	204.488E-12	1.13256E+0	-227.300E-3
577.500E-3	205.080E-12	1.11820E+0	-225.626E-3	205.025E-12	1.12287E+0	-220.390E-3
581.000E-3	205.796E-12	1.11362E+0	-209.377E-3	204.833E-12	1.11886E+0	-210.030E-3
584.500E-3	204.581E-12	1.11785E+0	-194.780E-3	204.417E-12	1.12102E+0	-199.597E-3
588.000E-3	202.086E-12	1.12604E+0	-188.757E-3	204.400E-12	1.12751E+0	-192.716E-3
591.500E-3	205.325E-12	1.13747E+0	-188.906E-3	205.237E-12	1.13533E+0	-190.583E-3
595.000E-3	206.953E-12	1.14482E+0	-190.516E-3	206.578E-12	1.14182E+0	-191.612E-3
598.500E-3	208.692E-12	1.14660E+0	-194.952E-3	207.752E-12	1.14638E+0	-193.660E-3
602.000E-3	208.224E-12	1.14855E+0	-196.105E-3	208.201E-12	1.15016E+0	-196.022E-3
605.500E-3	208.315E-12	1.15340E+0	-196.383E-3	208.148E-12	1.15492E+0	-199.975E-3
609.000E-3	208.101E-12	1.16055E+0	-202.807E-3	208.380E-12	1.16117E+0	-207.072E-3
612.500E-3	207.084E-12	1.16890E+0	-216.955E-3	209.066E-12	1.16831E+0	-217.613E-3
616.000E-3	212.177E-12	1.17553E+0	-231.336E-3	210.162E-12	1.17612E+0	-229.597E-3
619.500E-3	210.661E-12	1.18276E+0	-242.924E-3	211.465E-12	1.18577E+0	-240.096E-3
623.000E-3	212.202E-12	1.19448E+0	-250.210E-3	212.899E-12	1.19942E+0	-247.377E-3
626.500E-3	214.966E-12	1.21406E+0	-252.684E-3	214.281E-12	1.21854E+0	-250.919E-3
630.000E-3	215.871E-12	1.24100E+0	-253.903E-3	215.864E-12	1.24238E+0	-250.312E-3
633.500E-3	217.068E-12	1.26984E+0	-249.299E-3	217.304E-12	1.26814E+0	-244.890E-3
637.000E-3	218.857E-12	1.29583E+0	-237.769E-3	218.446E-12	1.29243E+0	-234.773E-3
640.500E-3	220.026E-12	1.31640E+0	-221.102E-3	219.375E-12	1.31273E+0	-221.254E-3
644.000E-3	219.479E-12	1.33167E+0	-205.687E-3	219.709E-12	1.32862E+0	-207.171E-3
647.500E-3	220.785E-12	1.34134E+0	-191.611E-3	219.876E-12	1.34083E+0	-196.433E-3
651.000E-3	218.237E-12	1.35205E+0	-184.057E-3	219.853E-12	1.35052E+0	-192.557E-3
654.500E-3	221.568E-12	1.35953E+0	-191.480E-3	219.850E-12	1.35902E+0	-197.265E-3
658.000E-3	219.018E-12	1.36554E+0	-206.814E-3	219.900E-12	1.36798E+0	-209.150E-3
661.500E-3	219.423E-12	1.37628E+0	-226.389E-3	220.129E-12	1.37880E+0	-224.402E-3
665.000E-3	221.437E-12	1.39083E+0	-241.505E-3	219.928E-12	1.39188E+0	-238.143E-3
668.500E-3	220.193E-12	1.40748E+0	-252.951E-3	219.898E-12	1.40468E+0	-247.466E-3
672.000E-3	217.248E-12	1.42104E+0	-253.865E-3	220.196E-12	1.41242E+0	-251.805E-3
675.500E-3	221.927E-12	1.42016E+0	-252.705E-3	221.068E-12	1.41064E+0	-252.124E-3
679.000E-3	223.309E-12	1.40469E+0	-252.176E-3	222.569E-12	1.39841E+0	-248.878E-3
682.500E-3	222.946E-12	1.37852E+0	-245.923E-3	224.049E-12	1.38015E+0	-241.510E-3
686.000E-3	226.438E-12	1.35477E+0	-233.083E-3	224.950E-12	1.36343E+0	-229.530E-3
689.500E-3	225.680E-12	1.34635E+0	-213.576E-3	225.419E-12	1.35303E+0	-214.174E-3
693.000E-3	225.243E-12	1.34996E+0	-196.293E-3	225.939E-12	1.34851E+0	-198.386E-3
696.500E-3	225.398E-12	1.34852E+0	-181.875E-3	227.061E-12	1.34602E+0	-184.364E-3
700.000E-3	229.026E-12	1.34286E+0	-172.173E-3	229.026E-12	1.34286E+0	-172.173E-3
