Experiment	bias spectroscopy	
Date	18.08.2023 15:42:08	
User		
X (m)	-194.357E-9	
Y (m)	82.1984E-9	
Z (m)	-157.166E-9	
Z offset (m)	0E+0	
Settling time (s)	100E-6	
Integration time (s)	25E-3	
Z-Ctrl hold	TRUE	
Final Z (m)	N/A	
Filter type	Gaussian	
Order	2	
Cutoff frq		

[DATA]
Bias calc (V)	Current (A)	Lock In X (V)	Lock In Y (V)	Current (A) [filt]	Lock In X (V) [filt]	Lock In Y (V) [filt]
-700.000E-3	-206.457E-12	274.050E-3	-232.534E-3	-206.457E-12	274.050E-3	-232.534E-3
-696.500E-3	-203.506E-12	284.522E-3	-227.193E-3	-206.278E-12	285.815E-3	-226.749E-3
-693.000E-3	-207.491E-12	298.636E-3	-220.413E-3	-206.505E-12	296.747E-3	-221.190E-3
-689.500E-3	-207.736E-12	309.329E-3	-215.582E-3	-207.092E-12	305.484E-3	-216.029E-3
-686.000E-3	-207.614E-12	313.551E-3	-211.117E-3	-207.402E-12	310.660E-3	-211.533E-3
-682.500E-3	-206.981E-12	313.415E-3	-207.197E-3	-207.203E-12	312.680E-3	-208.192E-3
-679.000E-3	-206.921E-12	311.806E-3	-204.390E-3	-206.894E-12	314.269E-3	-206.564E-3
-675.500E-3	-207.001E-12	314.040E-3	-205.360E-3	-206.821E-12	318.938E-3	-207.748E-3
-672.000E-3	-205.692E-12	323.972E-3	-209.127E-3	-206.964E-12	329.422E-3	-212.032E-3
-668.500E-3	-208.351E-12	342.219E-3	-218.977E-3	-207.334E-12	346.807E-3	-217.814E-3
-665.000E-3	-207.447E-12	367.327E-3	-226.992E-3	-207.699E-12	371.060E-3	-221.990E-3
-661.500E-3	-208.136E-12	396.948E-3	-226.073E-3	-207.935E-12	400.073E-3	-222.380E-3
-658.000E-3	-208.089E-12	434.545E-3	-218.988E-3	-207.957E-12	428.621E-3	-218.874E-3
-654.500E-3	-207.677E-12	462.770E-3	-213.157E-3	-207.986E-12	450.363E-3	-212.642E-3
-651.000E-3	-208.317E-12	468.571E-3	-207.306E-3	-207.750E-12	462.064E-3	-203.029E-3
-647.500E-3	-207.758E-12	464.995E-3	-195.675E-3	-207.377E-12	465.097E-3	-187.490E-3
-644.000E-3	-206.003E-12	464.198E-3	-169.572E-3	-206.808E-12	463.868E-3	-166.339E-3
-640.500E-3	-206.964E-12	462.252E-3	-135.553E-3	-206.466E-12	462.109E-3	-145.749E-3
-637.000E-3	-205.145E-12	459.306E-3	-119.654E-3	-206.568E-12	460.975E-3	-134.059E-3
-633.500E-3	-207.600E-12	460.348E-3	-128.352E-3	-207.237E-12	459.246E-3	-136.799E-3
-630.000E-3	-207.976E-12	460.912E-3	-146.625E-3	-208.107E-12	455.341E-3	-152.556E-3
-626.500E-3	-209.385E-12	449.593E-3	-176.504E-3	-208.911E-12	449.079E-3	-174.653E-3
-623.000E-3	-209.791E-12	437.802E-3	-202.119E-3	-209.193E-12	442.022E-3	-195.682E-3
-619.500E-3	-209.050E-12	435.242E-3	-217.110E-3	-208.979E-12	436.207E-3	-211.469E-3
-616.000E-3	-208.678E-12	432.931E-3	-222.477E-3	-208.428E-12	432.836E-3	-221.471E-3
-612.500E-3	-207.297E-12	429.007E-3	-227.592E-3	-207.773E-12	431.802E-3	-227.898E-3
-609.000E-3	-207.463E-12	430.627E-3	-234.367E-3	-207.088E-12	431.778E-3	-232.898E-3
-605.500E-3	-206.534E-12	436.054E-3	-237.301E-3	-206.205E-12	430.332E-3	-237.669E-3
-602.000E-3	-205.211E-12	430.568E-3	-241.235E-3	-205.370E-12	424.980E-3	-242.888E-3
-598.500E-3	-203.665E-12	414.976E-3	-248.186E-3	-204.795E-12	414.999E-3	-247.821E-3
-595.000E-3	-204.855E-12	401.874E-3	-256.516E-3	-204.923E-12	402.914E-3	-250.140E-3
-591.500E-3	-205.119E-12	388.826E-3	-252.883E-3	-205.417E-12	392.066E-3	-247.751E-3
-588.000E-3	-207.070E-12	382.370E-3	-240.043E-3	-205.972E-12	383.658E-3	-241.082E-3
-584.500E-3	-205.669E-12	377.727E-3	-231.128E-3	-206.288E-12	377.037E-3	-233.156E-3
-581.000E-3	-206.546E-12	370.556E-3	-224.565E-3	-206.140E-12	371.823E-3	-228.227E-3
-577.500E-3	-206.937E-12	365.801E-3	-222.547E-3	-205.658E-12	368.250E-3	-228.156E-3
-574.000E-3	-203.420E-12	364.971E-3	-232.252E-3	-205.021E-12	366.619E-3	-232.183E-3
-570.500E-3	-205.033E-12	367.490E-3	-239.364E-3	-204.763E-12	363.866E-3	-238.015E-3
-567.000E-3	-203.763E-12	367.056E-3	-244.812E-3	-204.994E-12	353.663E-3	-243.340E-3
-563.500E-3	-206.819E-12	342.990E-3	-247.626E-3	-205.444E-12	331.682E-3	-246.350E-3
-560.000E-3	-205.964E-12	299.274E-3	-249.775E-3	-205.845E-12	299.792E-3	-245.797E-3
-556.500E-3	-204.571E-12	258.861E-3	-245.870E-3	-206.486E-12	265.652E-3	-240.561E-3
-553.000E-3	-208.238E-12	229.137E-3	-231.943E-3	-207.126E-12	237.845E-3	-230.811E-3
-549.500E-3	-208.756E-12	212.896E-3	-217.805E-3	-207.697E-12	218.888E-3	-218.710E-3
-546.000E-3	-207.227E-12	208.410E-3	-204.425E-3	-207.737E-12	206.149E-3	-207.256E-3
-542.500E-3	-207.793E-12	195.691E-3	-196.235E-3	-207.179E-12	197.368E-3	-198.083E-3
-539.000E-3	-206.351E-12	184.871E-3	-191.265E-3	-206.377E-12	192.368E-3	-191.443E-3
-535.500E-3	-205.587E-12	189.478E-3	-184.396E-3	-205.624E-12	190.575E-3	-188.215E-3
-532.000E-3	-204.275E-12	195.786E-3	-183.718E-3	-205.309E-12	188.983E-3	-188.954E-3
-528.500E-3	-204.877E-12	189.482E-3	-193.644E-3	-205.441E-12	183.247E-3	-192.891E-3
-525.000E-3	-207.404E-12	172.498E-3	-200.598E-3	-205.900E-12	172.580E-3	-196.939E-3
-521.500E-3	-205.140E-12	156.274E-3	-202.445E-3	-206.266E-12	161.083E-3	-197.830E-3
-518.000E-3	-207.213E-12	148.332E-3	-195.532E-3	-206.336E-12	153.527E-3	-195.731E-3
-514.500E-3	-206.301E-12	148.587E-3	-188.475E-3	-206.456E-12	152.510E-3	-193.879E-3
-511.000E-3	-205.492E-12	153.322E-3	-192.549E-3	-206.410E-12	157.555E-3	-194.842E-3
-507.500E-3	-208.634E-12	166.538E-3	-199.317E-3	-206.160E-12	165.814E-3	-198.794E-3
-504.000E-3	-203.630E-12	178.254E-3	-204.394E-3	-206.043E-12	173.657E-3	-204.292E-3
-500.500E-3	-206.065E-12	181.185E-3	-209.061E-3	-206.068E-12	179.711E-3	-210.456E-3
-497.000E-3	-207.621E-12	180.628E-3	-216.195E-3	-206.153E-12	184.538E-3	-218.372E-3
-493.500E-3	-205.385E-12	190.025E-3	-226.073E-3	-206.590E-12	189.877E-3	-229.237E-3
-490.000E-3	-206.493E-12	196.931E-3	-241.681E-3	-206.875E-12	198.189E-3	-243.246E-3
-486.500E-3	-208.415E-12	202.814E-3	-259.285E-3	-206.980E-12	212.572E-3	-258.559E-3
-483.000E-3	-207.062E-12	226.665E-3	-276.951E-3	-206.899E-12	235.286E-3	-271.468E-3
-479.500E-3	-205.528E-12	264.918E-3	-285.869E-3	-206.204E-12	265.785E-3	-279.043E-3
-476.000E-3	-206.557E-12	303.092E-3	-281.655E-3	-205.404E-12	299.718E-3	-281.382E-3
-472.500E-3	-203.268E-12	334.946E-3	-279.141E-3	-204.828E-12	332.914E-3	-280.461E-3
-469.000E-3	-204.870E-12	362.691E-3	-280.317E-3	-204.754E-12	366.778E-3	-278.591E-3
-465.500E-3	-204.623E-12	395.482E-3	-276.415E-3	-204.865E-12	408.418E-3	-276.750E-3
-462.000E-3	-206.062E-12	448.194E-3	-274.277E-3	-204.991E-12	466.487E-3	-274.011E-3
-458.500E-3	-204.575E-12	529.647E-3	-272.955E-3	-204.603E-12	547.586E-3	-268.887E-3
-455.000E-3	-203.860E-12	636.615E-3	-264.127E-3	-203.786E-12	655.193E-3	-260.439E-3
-451.500E-3	-203.146E-12	770.394E-3	-248.968E-3	-202.795E-12	790.290E-3	-249.156E-3
-448.000E-3	-200.993E-12	934.591E-3	-234.361E-3	-201.518E-12	951.365E-3	-238.929E-3
-444.500E-3	-201.622E-12	1.12486E+0	-225.492E-3	-199.963E-12	1.13303E+0	-234.853E-3
-441.000E-3	-196.940E-12	1.32754E+0	-233.338E-3	-198.364E-12	1.32472E+0	-238.786E-3
-437.500E-3	-196.490E-12	1.52618E+0	-250.429E-3	-196.813E-12	1.51306E+0	-247.943E-3
-434.000E-3	-196.680E-12	1.70378E+0	-261.509E-3	-195.551E-12	1.68538E+0	-257.775E-3
-430.500E-3	-192.897E-12	1.85461E+0	-265.833E-3	-194.642E-12	1.83352E+0	-265.554E-3
-427.000E-3	-194.719E-12	1.97195E+0	-270.554E-3	-194.025E-12	1.95420E+0	-271.743E-3
-423.500E-3	-193.058E-12	2.06511E+0	-277.896E-3	-193.375E-12	2.04782E+0	-277.663E-3
-420.000E-3	-193.922E-12	2.13244E+0	-284.689E-3	-192.569E-12	2.11554E+0	-282.750E-3
-416.500E-3	-190.707E-12	2.17553E+0	-289.030E-3	-191.152E-12	2.15855E+0	-284.842E-3
-413.000E-3	-189.649E-12	2.19295E+0	-286.657E-3	-189.570E-12	2.17832E+0	-282.104E-3
-409.500E-3	-187.777E-12	2.18831E+0	-276.885E-3	-188.032E-12	2.17867E+0	-274.382E-3
-406.000E-3	-186.390E-12	2.16920E+0	-263.531E-3	-186.940E-12	2.16559E+0	-263.610E-3
-402.500E-3	-186.101E-12	2.14546E+0	-249.912E-3	-186.016E-12	2.14676E+0	-252.354E-3
-399.000E-3	-185.736E-12	2.12298E+0	-241.672E-3	-185.147E-12	2.12909E+0	-242.001E-3
-395.500E-3	-183.830E-12	2.11164E+0	-233.417E-3	-184.069E-12	2.11619E+0	-232.188E-3
-392.000E-3	-183.071E-12	2.10786E+0	-222.790E-3	-182.972E-12	2.10771E+0	-222.349E-3
-388.500E-3	-181.274E-12	2.10254E+0	-210.939E-3	-181.741E-12	2.10159E+0	-213.159E-3
-385.000E-3	-181.715E-12	2.09469E+0	-202.548E-3	-180.593E-12	2.09735E+0	-205.871E-3
-381.500E-3	-178.164E-12	2.09030E+0	-201.015E-3	-179.435E-12	2.09688E+0	-200.774E-3
-378.000E-3	-178.765E-12	2.09798E+0	-197.537E-3	-178.200E-12	2.10259E+0	-197.307E-3
-374.500E-3	-177.645E-12	2.11141E+0	-193.053E-3	-176.699E-12	2.11497E+0	-195.811E-3
-371.000E-3	-174.400E-12	2.13037E+0	-192.596E-3	-175.150E-12	2.13115E+0	-197.876E-3
-367.500E-3	-173.156E-12	2.15266E+0	-201.259E-3	-173.492E-12	2.14648E+0	-205.736E-3
-364.000E-3	-172.517E-12	2.16274E+0	-215.612E-3	-172.096E-12	2.15682E+0	-219.315E-3
-360.500E-3	-170.394E-12	2.16448E+0	-237.501E-3	-171.170E-12	2.16016E+0	-236.408E-3
-357.000E-3	-170.009E-12	2.15976E+0	-255.826E-3	-170.578E-12	2.15805E+0	-253.227E-3
-353.500E-3	-170.904E-12	2.15132E+0	-271.502E-3	-169.724E-12	2.15389E+0	-265.914E-3
-350.000E-3	-169.889E-12	2.14930E+0	-278.386E-3	-168.020E-12	2.15046E+0	-272.204E-3
-346.500E-3	-164.891E-12	2.14753E+0	-274.087E-3	-165.934E-12	2.14765E+0	-272.409E-3
-343.000E-3	-161.470E-12	2.14873E+0	-269.274E-3	-164.235E-12	2.14328E+0	-267.597E-3
-339.500E-3	-164.873E-12	2.13856E+0	-262.736E-3	-163.329E-12	2.13595E+0	-259.611E-3
-336.000E-3	-163.355E-12	2.12343E+0	-248.800E-3	-162.922E-12	2.12825E+0	-250.667E-3
-332.500E-3	-161.452E-12	2.11676E+0	-239.067E-3	-162.548E-12	2.12424E+0	-243.557E-3
-329.000E-3	-162.181E-12	2.12335E+0	-236.144E-3	-161.937E-12	2.12738E+0	-240.015E-3
-325.500E-3	-162.265E-12	2.13390E+0	-241.171E-3	-161.074E-12	2.13757E+0	-239.492E-3
-322.000E-3	-160.182E-12	2.15093E+0	-241.310E-3	-159.468E-12	2.15203E+0	-239.318E-3
-318.500E-3	-157.000E-12	2.17020E+0	-238.594E-3	-157.505E-12	2.16661E+0	-237.953E-3
-315.000E-3	-154.112E-12	2.18363E+0	-234.686E-3	-155.545E-12	2.17791E+0	-236.318E-3
-311.500E-3	-155.628E-12	2.18673E+0	-232.799E-3	-154.215E-12	2.18461E+0	-237.660E-3
-308.000E-3	-151.545E-12	2.18695E+0	-238.398E-3	-153.066E-12	2.18864E+0	-244.005E-3
-304.500E-3	-153.458E-12	2.19034E+0	-254.669E-3	-151.938E-12	2.19355E+0	-254.983E-3
-301.000E-3	-149.901E-12	2.19865E+0	-269.715E-3	-150.490E-12	2.20184E+0	-268.248E-3
-297.500E-3	-149.259E-12	2.21230E+0	-281.948E-3	-149.177E-12	2.21283E+0	-280.442E-3
-294.000E-3	-147.357E-12	2.22765E+0	-293.853E-3	-147.990E-12	2.22371E+0	-288.571E-3
-290.500E-3	-146.997E-12	2.23541E+0	-296.444E-3	-147.163E-12	2.23284E+0	-291.017E-3
-287.000E-3	-147.218E-12	2.23748E+0	-290.421E-3	-146.455E-12	2.24257E+0	-287.471E-3
-283.500E-3	-144.993E-12	2.24759E+0	-280.589E-3	-145.643E-12	2.25776E+0	-279.380E-3
-280.000E-3	-145.424E-12	2.27590E+0	-268.645E-3	-144.349E-12	2.28298E+0	-269.324E-3
-276.500E-3	-143.190E-12	2.31233E+0	-258.381E-3	-142.283E-12	2.31997E+0	-259.236E-3
-273.000E-3	-139.646E-12	2.36054E+0	-249.393E-3	-140.000E-12	2.36658E+0	-250.635E-3
-269.500E-3	-136.045E-12	2.42051E+0	-241.129E-3	-137.902E-12	2.41778E+0	-245.527E-3
-266.000E-3	-137.156E-12	2.47438E+0	-239.728E-3	-136.304E-12	2.46790E+0	-246.439E-3
-262.500E-3	-135.551E-12	2.51714E+0	-248.719E-3	-134.713E-12	2.51250E+0	-254.728E-3
-259.000E-3	-132.791E-12	2.55373E+0	-268.144E-3	-132.805E-12	2.54980E+0	-268.361E-3
-255.500E-3	-130.006E-12	2.58532E+0	-288.015E-3	-130.683E-12	2.57929E+0	-282.514E-3
-252.000E-3	-128.603E-12	2.60846E+0	-297.559E-3	-128.872E-12	2.59978E+0	-293.208E-3
-248.500E-3	-127.600E-12	2.61741E+0	-299.923E-3	-127.476E-12	2.61158E+0	-299.274E-3
-245.000E-3	-125.973E-12	2.61557E+0	-303.226E-3	-126.277E-12	2.61873E+0	-302.470E-3
-241.500E-3	-125.404E-12	2.62016E+0	-304.030E-3	-125.090E-12	2.62704E+0	-304.614E-3
-238.000E-3	-123.825E-12	2.63738E+0	-307.414E-3	-123.826E-12	2.63929E+0	-305.703E-3
-234.500E-3	-122.539E-12	2.65776E+0	-307.900E-3	-122.454E-12	2.65243E+0	-304.687E-3
-231.000E-3	-121.066E-12	2.66961E+0	-302.421E-3	-120.899E-12	2.65973E+0	-301.542E-3
-227.500E-3	-119.306E-12	2.66568E+0	-295.638E-3	-119.106E-12	2.65575E+0	-297.656E-3
-224.000E-3	-117.421E-12	2.64686E+0	-292.315E-3	-117.099E-12	2.63849E+0	-295.558E-3
-220.500E-3	-114.543E-12	2.61621E+0	-294.116E-3	-115.150E-12	2.60964E+0	-295.787E-3
-217.000E-3	-112.993E-12	2.57422E+0	-300.388E-3	-113.449E-12	2.57450E+0	-296.328E-3
-213.500E-3	-112.401E-12	2.53197E+0	-298.089E-3	-112.166E-12	2.54038E+0	-293.919E-3
-210.000E-3	-110.618E-12	2.50461E+0	-290.260E-3	-111.026E-12	2.51349E+0	-286.275E-3
-206.500E-3	-110.679E-12	2.49149E+0	-276.438E-3	-109.780E-12	2.49646E+0	-273.887E-3
-203.000E-3	-107.995E-12	2.48431E+0	-257.143E-3	-108.490E-12	2.48810E+0	-260.517E-3
-199.500E-3	-106.717E-12	2.48294E+0	-243.539E-3	-107.034E-12	2.48692E+0	-250.433E-3
-196.000E-3	-106.823E-12	2.48565E+0	-242.180E-3	-105.326E-12	2.49343E+0	-246.088E-3
-192.500E-3	-102.661E-12	2.50141E+0	-246.429E-3	-103.424E-12	2.50845E+0	-246.251E-3
-189.000E-3	-101.284E-12	2.52904E+0	-250.334E-3	-101.490E-12	2.53071E+0	-247.733E-3
-185.500E-3	-99.5351E-12	2.55781E+0	-248.453E-3	-99.8008E-12	2.55749E+0	-247.689E-3
-182.000E-3	-98.3754E-12	2.58502E+0	-247.451E-3	-98.3117E-12	2.58607E+0	-245.389E-3
-178.500E-3	-97.5391E-12	2.61471E+0	-241.773E-3	-96.8343E-12	2.61489E+0	-242.122E-3
-175.000E-3	-94.2112E-12	2.64517E+0	-236.009E-3	-95.4721E-12	2.64352E+0	-240.618E-3
-171.500E-3	-94.5083E-12	2.67159E+0	-238.403E-3	-94.0281E-12	2.67311E+0	-243.338E-3
-168.000E-3	-93.6611E-12	2.69908E+0	-248.560E-3	-92.4171E-12	2.70590E+0	-250.924E-3
-164.500E-3	-89.6008E-12	2.73976E+0	-262.778E-3	-90.7569E-12	2.74360E+0	-261.415E-3
-161.000E-3	-88.7770E-12	2.78608E+0	-273.679E-3	-89.1822E-12	2.78587E+0	-271.826E-3
-157.500E-3	-88.1915E-12	2.83039E+0	-281.974E-3	-87.7660E-12	2.83055E+0	-280.058E-3
-154.000E-3	-87.0160E-12	2.87544E+0	-287.731E-3	-86.3393E-12	2.87590E+0	-284.764E-3
-150.500E-3	-84.2221E-12	2.92086E+0	-289.394E-3	-84.4823E-12	2.92263E+0	-285.684E-3
-147.000E-3	-82.6235E-12	2.96817E+0	-283.893E-3	-82.4111E-12	2.97119E+0	-283.222E-3
-143.500E-3	-80.0519E-12	3.02322E+0	-278.764E-3	-80.3781E-12	3.01951E+0	-278.441E-3
-140.000E-3	-78.3895E-12	3.07156E+0	-273.262E-3	-78.4714E-12	3.06388E+0	-273.124E-3
-136.500E-3	-76.8772E-12	3.10658E+0	-266.031E-3	-76.3676E-12	3.10143E+0	-269.809E-3
-133.000E-3	-74.5711E-12	3.13443E+0	-265.053E-3	-74.1645E-12	3.13112E+0	-268.743E-3
-129.500E-3	-70.8209E-12	3.15907E+0	-273.880E-3	-71.9722E-12	3.15434E+0	-267.738E-3
-126.000E-3	-70.1696E-12	3.17451E+0	-269.122E-3	-69.9882E-12	3.17408E+0	-263.746E-3
-122.500E-3	-68.5107E-12	3.18873E+0	-255.504E-3	-68.0683E-12	3.19480E+0	-256.649E-3
-119.000E-3	-66.2769E-12	3.21329E+0	-243.823E-3	-66.0155E-12	3.22126E+0	-248.759E-3
-115.500E-3	-63.4567E-12	3.25083E+0	-243.274E-3	-63.7877E-12	3.25612E+0	-243.016E-3
-112.000E-3	-61.2859E-12	3.29594E+0	-239.142E-3	-61.6436E-12	3.29909E+0	-239.307E-3
-108.500E-3	-59.9914E-12	3.34430E+0	-236.323E-3	-59.6102E-12	3.34857E+0	-236.403E-3
-105.000E-3	-57.6416E-12	3.39996E+0	-233.155E-3	-57.5151E-12	3.40262E+0	-234.353E-3
-101.500E-3	-55.3473E-12	3.46059E+0	-230.830E-3	-55.1534E-12	3.45842E+0	-235.082E-3
-98.0000E-3	-52.7473E-12	3.51724E+0	-236.109E-3	-52.6489E-12	3.51169E+0	-239.386E-3
-94.5000E-3	-49.6149E-12	3.56587E+0	-247.301E-3	-50.2408E-12	3.55755E+0	-246.301E-3
-91.0000E-3	-48.0989E-12	3.60183E+0	-255.879E-3	-48.0756E-12	3.59299E+0	-253.321E-3
-87.5000E-3	-46.0635E-12	3.62348E+0	-260.357E-3	-46.1100E-12	3.61790E+0	-258.278E-3
-84.0000E-3	-44.3413E-12	3.63754E+0	-261.433E-3	-44.1590E-12	3.63446E+0	-260.086E-3
-80.5000E-3	-42.2651E-12	3.64725E+0	-262.000E-3	-42.0689E-12	3.64522E+0	-259.440E-3
-77.0000E-3	-39.7014E-12	3.65493E+0	-256.007E-3	-39.8658E-12	3.65131E+0	-257.246E-3
-73.5000E-3	-37.7421E-12	3.65720E+0	-254.611E-3	-37.6122E-12	3.65219E+0	-254.670E-3
-70.0000E-3	-35.2540E-12	3.65138E+0	-251.940E-3	-35.3799E-12	3.64704E+0	-252.142E-3
-66.5000E-3	-33.1759E-12	3.63941E+0	-250.448E-3	-33.2237E-12	3.63538E+0	-249.757E-3
-63.0000E-3	-31.0659E-12	3.62199E+0	-247.188E-3	-31.1431E-12	3.61760E+0	-246.787E-3
-59.5000E-3	-29.1052E-12	3.59712E+0	-243.839E-3	-29.1397E-12	3.59478E+0	-242.497E-3
-56.0000E-3	-27.2526E-12	3.56907E+0	-239.034E-3	-27.1547E-12	3.56878E+0	-236.886E-3
-52.5000E-3	-25.1144E-12	3.54060E+0	-228.294E-3	-25.1320E-12	3.54222E+0	-232.026E-3
-49.0000E-3	-23.1676E-12	3.51443E+0	-224.215E-3	-23.0172E-12	3.51816E+0	-229.467E-3
-45.5000E-3	-20.8761E-12	3.49372E+0	-232.059E-3	-20.8729E-12	3.49818E+0	-229.039E-3
-42.0000E-3	-18.4656E-12	3.48162E+0	-231.167E-3	-18.7637E-12	3.48038E+0	-228.946E-3
-38.5000E-3	-16.8606E-12	3.46857E+0	-227.279E-3	-16.7426E-12	3.45971E+0	-227.880E-3
-35.0000E-3	-14.7269E-12	3.43970E+0	-224.580E-3	-14.7839E-12	3.43145E+0	-225.147E-3
-31.5000E-3	-12.9081E-12	3.39761E+0	-225.364E-3	-12.8229E-12	3.39434E+0	-221.621E-3
-28.0000E-3	-10.8317E-12	3.35192E+0	-215.691E-3	-10.8554E-12	3.35060E+0	-218.337E-3
-24.5000E-3	-8.73792E-12	3.30500E+0	-212.079E-3	-8.92900E-12	3.30359E+0	-217.483E-3
-21.0000E-3	-7.18563E-12	3.25491E+0	-217.655E-3	-7.04475E-12	3.25707E+0	-220.503E-3
-17.5000E-3	-5.13194E-12	3.20644E+0	-227.720E-3	-5.19320E-12	3.21627E+0	-226.898E-3
-14.0000E-3	-3.33978E-12	3.17378E+0	-235.610E-3	-3.32743E-12	3.18649E+0	-233.807E-3
-10.5000E-3	-1.52072E-12	3.16245E+0	-240.607E-3	-1.45319E-12	3.16862E+0	-238.638E-3
-7.00000E-3	559.692E-15	3.16124E+0	-243.550E-3	397.629E-15	3.15789E+0	-240.194E-3
-3.50000E-3	2.14177E-12	3.15229E+0	-240.213E-3	2.22558E-12	3.14691E+0	-238.229E-3
0.00000E+0	4.06329E-12	3.13510E+0	-234.738E-3	4.02516E-12	3.12948E+0	-233.722E-3
3.50000E-3	5.83595E-12	3.11138E+0	-226.584E-3	5.82334E-12	3.10250E+0	-228.311E-3
7.00000E-3	7.54061E-12	3.07248E+0	-222.504E-3	7.62327E-12	3.06683E+0	-223.942E-3
10.5000E-3	9.56118E-12	3.02309E+0	-219.796E-3	9.40279E-12	3.02711E+0	-222.521E-3
14.0000E-3	11.0891E-12	2.98148E+0	-220.239E-3	11.1720E-12	2.98995E+0	-224.273E-3
17.5000E-3	12.9113E-12	2.95433E+0	-230.731E-3	12.9413E-12	2.96060E+0	-227.817E-3
21.0000E-3	14.7570E-12	2.93566E+0	-232.816E-3	14.7407E-12	2.94069E+0	-232.046E-3
24.5000E-3	16.4803E-12	2.92374E+0	-233.374E-3	16.5473E-12	2.92952E+0	-237.380E-3
28.0000E-3	18.5379E-12	2.92059E+0	-241.736E-3	18.3208E-12	2.92612E+0	-244.623E-3
31.5000E-3	19.9410E-12	2.92638E+0	-255.361E-3	20.0553E-12	2.92894E+0	-252.979E-3
35.0000E-3	21.7610E-12	2.93610E+0	-265.358E-3	21.7774E-12	2.93519E+0	-258.386E-3
38.5000E-3	23.5427E-12	2.94363E+0	-263.703E-3	23.5362E-12	2.94188E+0	-256.985E-3
42.0000E-3	25.2122E-12	2.94810E+0	-251.233E-3	25.3563E-12	2.94755E+0	-248.141E-3
45.5000E-3	27.3240E-12	2.95168E+0	-234.799E-3	27.1801E-12	2.95150E+0	-234.607E-3
49.0000E-3	29.0171E-12	2.95702E+0	-217.820E-3	28.9744E-12	2.95266E+0	-220.716E-3
52.5000E-3	30.7036E-12	2.95435E+0	-205.330E-3	30.6875E-12	2.95006E+0	-210.588E-3
56.0000E-3	32.4539E-12	2.94387E+0	-200.830E-3	32.3154E-12	2.94441E+0	-205.517E-3
59.5000E-3	33.8036E-12	2.93514E+0	-206.017E-3	33.9840E-12	2.93769E+0	-203.921E-3
63.0000E-3	35.4988E-12	2.93183E+0	-205.290E-3	35.7321E-12	2.93151E+0	-203.820E-3
66.5000E-3	37.7874E-12	2.92732E+0	-200.456E-3	37.5930E-12	2.92578E+0	-204.593E-3
70.0000E-3	39.3764E-12	2.91946E+0	-205.286E-3	39.4692E-12	2.92030E+0	-208.816E-3
73.5000E-3	41.5123E-12	2.91284E+0	-211.470E-3	41.2616E-12	2.91661E+0	-219.021E-3
77.0000E-3	42.9272E-12	2.91202E+0	-234.015E-3	42.9114E-12	2.91750E+0	-234.736E-3
80.5000E-3	44.5193E-12	2.91984E+0	-255.448E-3	44.5555E-12	2.92405E+0	-251.762E-3
84.0000E-3	45.9615E-12	2.93537E+0	-271.549E-3	46.2845E-12	2.93443E+0	-265.182E-3
87.5000E-3	48.1678E-12	2.94823E+0	-277.712E-3	48.0434E-12	2.94520E+0	-271.310E-3
91.0000E-3	50.2700E-12	2.95591E+0	-273.121E-3	49.8534E-12	2.95338E+0	-269.771E-3
94.5000E-3	50.9224E-12	2.96043E+0	-265.427E-3	51.6788E-12	2.95736E+0	-262.198E-3
98.0000E-3	53.9180E-12	2.96051E+0	-251.275E-3	53.5694E-12	2.95711E+0	-251.362E-3
101.500E-3	55.4877E-12	2.95456E+0	-237.906E-3	55.4897E-12	2.95330E+0	-240.604E-3
105.000E-3	57.4635E-12	2.94747E+0	-228.552E-3	57.2143E-12	2.94649E+0	-231.736E-3
108.500E-3	59.2109E-12	2.93981E+0	-226.040E-3	58.6896E-12	2.93652E+0	-225.165E-3
112.000E-3	59.2613E-12	2.92686E+0	-219.845E-3	60.0835E-12	2.92204E+0	-219.762E-3
115.500E-3	61.8601E-12	2.90679E+0	-214.131E-3	61.5769E-12	2.90205E+0	-215.381E-3
119.000E-3	63.0250E-12	2.87821E+0	-209.377E-3	63.3264E-12	2.87778E+0	-213.088E-3
122.500E-3	65.0096E-12	2.84934E+0	-211.383E-3	65.3510E-12	2.85248E+0	-214.314E-3
126.000E-3	67.7521E-12	2.82633E+0	-217.822E-3	67.4103E-12	2.82920E+0	-218.898E-3
129.500E-3	69.6112E-12	2.80757E+0	-225.486E-3	69.2803E-12	2.80841E+0	-225.946E-3
133.000E-3	71.2900E-12	2.79118E+0	-233.302E-3	70.7127E-12	2.78720E+0	-233.665E-3
136.500E-3	71.6326E-12	2.76830E+0	-243.382E-3	71.9278E-12	2.76173E+0	-239.946E-3
140.000E-3	72.4884E-12	2.73417E+0	-247.237E-3	73.2993E-12	2.73055E+0	-243.389E-3
143.500E-3	75.2108E-12	2.69402E+0	-243.701E-3	74.9877E-12	2.69656E+0	-245.044E-3
147.000E-3	76.9946E-12	2.65750E+0	-242.374E-3	76.9176E-12	2.66585E+0	-247.549E-3
150.500E-3	78.7787E-12	2.63482E+0	-251.369E-3	78.7695E-12	2.64358E+0	-252.768E-3
154.000E-3	80.8110E-12	2.62631E+0	-261.983E-3	80.2867E-12	2.63045E+0	-259.502E-3
157.500E-3	81.7392E-12	2.62401E+0	-268.131E-3	81.5163E-12	2.62257E+0	-264.649E-3
161.000E-3	82.2713E-12	2.61903E+0	-268.837E-3	82.6746E-12	2.61404E+0	-266.913E-3
164.500E-3	83.5429E-12	2.60596E+0	-265.237E-3	83.8730E-12	2.60123E+0	-268.306E-3
168.000E-3	85.7766E-12	2.58417E+0	-267.583E-3	85.4018E-12	2.58459E+0	-271.028E-3
171.500E-3	86.2647E-12	2.56399E+0	-277.230E-3	87.1123E-12	2.56740E+0	-274.089E-3
175.000E-3	89.6223E-12	2.54964E+0	-281.714E-3	88.8038E-12	2.55313E+0	-273.835E-3
178.500E-3	90.4996E-12	2.54018E+0	-272.037E-3	90.3331E-12	2.54328E+0	-267.444E-3
182.000E-3	91.3914E-12	2.53600E+0	-255.291E-3	91.6652E-12	2.53681E+0	-255.867E-3
185.500E-3	93.2130E-12	2.53296E+0	-240.694E-3	92.8999E-12	2.53063E+0	-242.498E-3
189.000E-3	93.6432E-12	2.52723E+0	-229.478E-3	94.3006E-12	2.52051E+0	-230.530E-3
192.500E-3	96.0688E-12	2.51052E+0	-218.343E-3	95.8903E-12	2.50378E+0	-221.978E-3
196.000E-3	97.5562E-12	2.48157E+0	-212.909E-3	97.4753E-12	2.48152E+0	-217.717E-3
199.500E-3	99.3128E-12	2.45371E+0	-216.469E-3	99.1285E-12	2.45791E+0	-218.149E-3
203.000E-3	100.175E-12	2.43321E+0	-220.343E-3	100.728E-12	2.43817E+0	-223.327E-3
206.500E-3	102.801E-12	2.41895E+0	-228.970E-3	102.479E-12	2.42600E+0	-231.735E-3
210.000E-3	104.012E-12	2.41608E+0	-244.428E-3	104.254E-12	2.42319E+0	-240.462E-3
213.500E-3	106.400E-12	2.42324E+0	-251.769E-3	105.940E-12	2.42988E+0	-245.550E-3
217.000E-3	107.526E-12	2.44139E+0	-250.194E-3	107.231E-12	2.44445E+0	-244.497E-3
220.500E-3	108.547E-12	2.46371E+0	-237.771E-3	108.333E-12	2.46347E+0	-238.186E-3
224.000E-3	108.618E-12	2.48530E+0	-227.921E-3	109.477E-12	2.48252E+0	-229.938E-3
227.500E-3	110.791E-12	2.50356E+0	-222.039E-3	110.957E-12	2.49790E+0	-221.394E-3
231.000E-3	112.953E-12	2.51135E+0	-215.307E-3	112.583E-12	2.50842E+0	-212.051E-3
234.500E-3	114.547E-12	2.51492E+0	-202.337E-3	114.164E-12	2.51541E+0	-200.387E-3
238.000E-3	115.174E-12	2.52011E+0	-186.754E-3	115.632E-12	2.52079E+0	-187.213E-3
241.500E-3	116.919E-12	2.52724E+0	-170.710E-3	117.201E-12	2.52474E+0	-175.882E-3
245.000E-3	119.130E-12	2.53089E+0	-163.291E-3	118.864E-12	2.52607E+0	-170.472E-3
248.500E-3	120.831E-12	2.52458E+0	-167.131E-3	120.432E-12	2.52435E+0	-173.409E-3
252.000E-3	121.785E-12	2.51959E+0	-180.281E-3	121.729E-12	2.52050E+0	-184.822E-3
255.500E-3	122.746E-12	2.51711E+0	-200.047E-3	122.964E-12	2.51452E+0	-202.384E-3
259.000E-3	123.919E-12	2.51111E+0	-223.914E-3	124.427E-12	2.50478E+0	-222.178E-3
262.500E-3	126.159E-12	2.49395E+0	-245.204E-3	126.252E-12	2.49049E+0	-240.362E-3
266.000E-3	128.344E-12	2.46958E+0	-257.464E-3	128.118E-12	2.47427E+0	-255.147E-3
269.500E-3	130.524E-12	2.45507E+0	-266.132E-3	129.828E-12	2.46016E+0	-266.677E-3
273.000E-3	130.754E-12	2.44918E+0	-277.878E-3	131.340E-12	2.45006E+0	-274.569E-3
276.500E-3	132.784E-12	2.44351E+0	-285.422E-3	132.833E-12	2.44209E+0	-276.696E-3
280.000E-3	134.602E-12	2.43624E+0	-277.564E-3	134.195E-12	2.43308E+0	-271.555E-3
283.500E-3	135.936E-12	2.42264E+0	-259.198E-3	135.391E-12	2.42238E+0	-261.140E-3
287.000E-3	135.836E-12	2.40843E+0	-245.697E-3	136.326E-12	2.41201E+0	-249.861E-3
290.500E-3	137.243E-12	2.40078E+0	-240.062E-3	136.912E-12	2.40381E+0	-241.072E-3
294.000E-3	138.265E-12	2.39878E+0	-234.458E-3	137.553E-12	2.39720E+0	-235.429E-3
297.500E-3	136.406E-12	2.39412E+0	-229.906E-3	138.670E-12	2.38876E+0	-232.131E-3
301.000E-3	140.414E-12	2.38062E+0	-229.681E-3	140.323E-12	2.37592E+0	-230.389E-3
304.500E-3	143.415E-12	2.35817E+0	-230.506E-3	142.190E-12	2.35978E+0	-229.984E-3
308.000E-3	143.882E-12	2.33934E+0	-229.021E-3	144.076E-12	2.34467E+0	-230.895E-3
311.500E-3	144.817E-12	2.32900E+0	-231.323E-3	145.729E-12	2.33543E+0	-232.365E-3
315.000E-3	148.091E-12	2.32784E+0	-237.117E-3	147.280E-12	2.33490E+0	-232.247E-3
318.500E-3	149.427E-12	2.33795E+0	-234.079E-3	148.711E-12	2.34205E+0	-227.560E-3
322.000E-3	149.143E-12	2.35567E+0	-220.316E-3	149.996E-12	2.35264E+0	-217.341E-3
325.500E-3	151.050E-12	2.36749E+0	-201.183E-3	151.222E-12	2.36123E+0	-205.409E-3
329.000E-3	153.188E-12	2.36883E+0	-188.254E-3	152.666E-12	2.36412E+0	-197.938E-3
332.500E-3	153.721E-12	2.36321E+0	-192.989E-3	154.382E-12	2.36156E+0	-198.611E-3
336.000E-3	155.956E-12	2.35459E+0	-205.489E-3	156.305E-12	2.35731E+0	-205.741E-3
339.500E-3	158.702E-12	2.35047E+0	-218.688E-3	158.191E-12	2.35548E+0	-214.653E-3
343.000E-3	160.770E-12	2.35512E+0	-223.504E-3	159.624E-12	2.35696E+0	-221.128E-3
346.500E-3	160.547E-12	2.36401E+0	-226.016E-3	160.536E-12	2.35897E+0	-224.453E-3
350.000E-3	160.173E-12	2.36318E+0	-225.125E-3	161.457E-12	2.35797E+0	-226.562E-3
353.500E-3	162.610E-12	2.35300E+0	-226.560E-3	162.539E-12	2.35352E+0	-229.747E-3
357.000E-3	165.123E-12	2.34442E+0	-234.689E-3	163.927E-12	2.34827E+0	-233.368E-3
360.500E-3	163.873E-12	2.34323E+0	-241.463E-3	165.270E-12	2.34518E+0	-234.253E-3
364.000E-3	167.329E-12	2.34447E+0	-235.296E-3	166.457E-12	2.34443E+0	-230.289E-3
367.500E-3	167.678E-12	2.34576E+0	-219.211E-3	167.500E-12	2.34375E+0	-223.996E-3
371.000E-3	168.301E-12	2.34405E+0	-212.077E-3	168.752E-12	2.34023E+0	-221.177E-3
374.500E-3	169.313E-12	2.33663E+0	-220.846E-3	170.090E-12	2.33161E+0	-224.475E-3
378.000E-3	172.488E-12	2.32151E+0	-236.655E-3	171.586E-12	2.31736E+0	-230.561E-3
381.500E-3	173.323E-12	2.29890E+0	-240.061E-3	173.262E-12	2.29977E+0	-233.450E-3
385.000E-3	173.550E-12	2.27764E+0	-232.933E-3	174.897E-12	2.28406E+0	-229.930E-3
388.500E-3	178.067E-12	2.26609E+0	-222.390E-3	176.352E-12	2.27622E+0	-221.579E-3
392.000E-3	177.586E-12	2.27070E+0	-209.555E-3	177.409E-12	2.27869E+0	-213.856E-3
395.500E-3	178.037E-12	2.28979E+0	-202.308E-3	178.661E-12	2.28763E+0	-211.950E-3
399.000E-3	178.066E-12	2.30461E+0	-212.851E-3	180.164E-12	2.29623E+0	-217.090E-3
402.500E-3	184.487E-12	2.30321E+0	-230.882E-3	182.013E-12	2.29950E+0	-224.764E-3
406.000E-3	183.799E-12	2.29784E+0	-238.249E-3	183.763E-12	2.29624E+0	-227.955E-3
409.500E-3	183.836E-12	2.29183E+0	-227.259E-3	185.247E-12	2.28667E+0	-222.772E-3
413.000E-3	187.673E-12	2.27806E+0	-210.349E-3	186.268E-12	2.26979E+0	-210.639E-3
416.500E-3	187.770E-12	2.25065E+0	-195.997E-3	187.405E-12	2.24426E+0	-196.450E-3
420.000E-3	186.888E-12	2.21308E+0	-179.628E-3	188.559E-12	2.21151E+0	-185.122E-3
423.500E-3	190.508E-12	2.17376E+0	-173.065E-3	189.820E-12	2.17534E+0	-178.697E-3
427.000E-3	191.530E-12	2.13773E+0	-177.336E-3	191.046E-12	2.13917E+0	-175.969E-3
430.500E-3	192.583E-12	2.10408E+0	-177.623E-3	192.384E-12	2.10494E+0	-174.851E-3
434.000E-3	191.775E-12	2.07026E+0	-171.243E-3	193.586E-12	2.07388E+0	-174.760E-3
437.500E-3	196.811E-12	2.04250E+0	-171.486E-3	194.610E-12	2.04606E+0	-178.178E-3
441.000E-3	195.863E-12	2.02238E+0	-182.619E-3	195.379E-12	2.01970E+0	-187.857E-3
444.500E-3	194.004E-12	1.99662E+0	-202.203E-3	196.198E-12	1.99160E+0	-203.220E-3
448.000E-3	197.545E-12	1.96243E+0	-222.991E-3	196.835E-12	1.95909E+0	-220.196E-3
451.500E-3	199.403E-12	1.92361E+0	-239.475E-3	197.546E-12	1.92183E+0	-233.848E-3
455.000E-3	196.435E-12	1.88238E+0	-247.451E-3	198.325E-12	1.88116E+0	-241.557E-3
458.500E-3	198.398E-12	1.83972E+0	-244.382E-3	199.650E-12	1.83778E+0	-244.335E-3
462.000E-3	201.803E-12	1.79446E+0	-242.534E-3	201.214E-12	1.79236E+0	-245.086E-3
465.500E-3	205.551E-12	1.74398E+0	-246.285E-3	202.744E-12	1.74662E+0	-246.041E-3
469.000E-3	201.174E-12	1.69880E+0	-248.612E-3	203.614E-12	1.70212E+0	-247.878E-3
472.500E-3	204.773E-12	1.66070E+0	-249.017E-3	204.409E-12	1.65831E+0	-249.992E-3
476.000E-3	205.507E-12	1.61785E+0	-252.185E-3	205.291E-12	1.61350E+0	-251.745E-3
479.500E-3	206.799E-12	1.56610E+0	-254.628E-3	205.985E-12	1.56737E+0	-252.697E-3
483.000E-3	206.728E-12	1.51676E+0	-253.351E-3	206.139E-12	1.52257E+0	-252.504E-3
486.500E-3	204.420E-12	1.47776E+0	-250.828E-3	206.326E-12	1.48321E+0	-251.607E-3
490.000E-3	207.408E-12	1.44575E+0	-249.571E-3	206.998E-12	1.45232E+0	-250.466E-3
493.500E-3	207.890E-12	1.42338E+0	-251.323E-3	208.351E-12	1.43051E+0	-249.131E-3
497.000E-3	209.726E-12	1.41317E+0	-247.429E-3	210.203E-12	1.41593E+0	-248.120E-3
500.500E-3	212.623E-12	1.40712E+0	-244.149E-3	212.018E-12	1.40490E+0	-249.153E-3
504.000E-3	214.068E-12	1.39651E+0	-250.169E-3	213.641E-12	1.39395E+0	-253.033E-3
507.500E-3	215.016E-12	1.38067E+0	-262.082E-3	214.796E-12	1.38168E+0	-258.538E-3
511.000E-3	215.645E-12	1.36803E+0	-266.069E-3	215.243E-12	1.36864E+0	-263.688E-3
514.500E-3	216.112E-12	1.35653E+0	-265.067E-3	215.293E-12	1.35551E+0	-268.919E-3
518.000E-3	213.965E-12	1.34261E+0	-271.210E-3	215.049E-12	1.34214E+0	-276.438E-3
521.500E-3	215.411E-12	1.32841E+0	-287.412E-3	214.966E-12	1.32856E+0	-287.183E-3
525.000E-3	214.383E-12	1.31352E+0	-301.861E-3	215.024E-12	1.31613E+0	-297.915E-3
528.500E-3	215.963E-12	1.30310E+0	-311.422E-3	215.239E-12	1.30605E+0	-302.724E-3
532.000E-3	215.016E-12	1.29830E+0	-307.536E-3	215.259E-12	1.29739E+0	-297.635E-3
535.500E-3	215.386E-12	1.29225E+0	-286.029E-3	215.185E-12	1.28711E+0	-283.474E-3
539.000E-3	215.032E-12	1.27754E+0	-261.876E-3	215.649E-12	1.27241E+0	-265.836E-3
542.500E-3	214.536E-12	1.25373E+0	-243.359E-3	217.225E-12	1.25443E+0	-251.936E-3
546.000E-3	220.869E-12	1.23013E+0	-239.730E-3	219.707E-12	1.23762E+0	-245.615E-3
549.500E-3	223.303E-12	1.22104E+0	-245.952E-3	222.013E-12	1.22585E+0	-245.230E-3
553.000E-3	224.555E-12	1.21900E+0	-249.414E-3	223.650E-12	1.21882E+0	-247.224E-3
556.500E-3	223.025E-12	1.21652E+0	-247.923E-3	223.904E-12	1.21289E+0	-248.476E-3
560.000E-3	226.025E-12	1.20724E+0	-249.975E-3	223.687E-12	1.20521E+0	-247.192E-3
563.500E-3	221.028E-12	1.19389E+0	-247.343E-3	223.408E-12	1.19591E+0	-241.501E-3
567.000E-3	223.492E-12	1.18595E+0	-235.539E-3	223.611E-12	1.18655E+0	-230.115E-3
570.500E-3	224.540E-12	1.17787E+0	-213.885E-3	224.229E-12	1.17883E+0	-213.198E-3
574.000E-3	225.020E-12	1.17030E+0	-193.399E-3	225.389E-12	1.17456E+0	-193.468E-3
577.500E-3	226.472E-12	1.16940E+0	-171.801E-3	226.365E-12	1.17555E+0	-175.171E-3
581.000E-3	227.796E-12	1.17873E+0	-154.226E-3	227.304E-12	1.18258E+0	-163.134E-3
584.500E-3	227.711E-12	1.19437E+0	-151.367E-3	228.108E-12	1.19425E+0	-161.299E-3
588.000E-3	229.144E-12	1.20832E+0	-163.649E-3	229.093E-12	1.20748E+0	-171.420E-3
591.500E-3	229.289E-12	1.22189E+0	-187.789E-3	230.079E-12	1.21959E+0	-190.327E-3
595.000E-3	232.756E-12	1.23123E+0	-217.540E-3	230.894E-12	1.22968E+0	-211.631E-3
598.500E-3	230.902E-12	1.23778E+0	-235.054E-3	231.448E-12	1.23866E+0	-229.379E-3
602.000E-3	230.965E-12	1.24622E+0	-244.433E-3	232.047E-12	1.24821E+0	-239.668E-3
605.500E-3	233.340E-12	1.25754E+0	-248.734E-3	232.760E-12	1.26052E+0	-241.285E-3
609.000E-3	233.967E-12	1.27296E+0	-239.414E-3	233.602E-12	1.27631E+0	-235.288E-3
612.500E-3	234.287E-12	1.29531E+0	-224.560E-3	234.258E-12	1.29456E+0	-224.442E-3
616.000E-3	234.356E-12	1.31506E+0	-209.171E-3	234.627E-12	1.31324E+0	-213.154E-3
619.500E-3	235.512E-12	1.33192E+0	-200.462E-3	234.880E-12	1.33132E+0	-206.238E-3
623.000E-3	234.871E-12	1.34700E+0	-200.444E-3	235.234E-12	1.34935E+0	-206.303E-3
626.500E-3	234.882E-12	1.36693E+0	-209.674E-3	236.024E-12	1.36940E+0	-213.702E-3
630.000E-3	237.259E-12	1.38967E+0	-224.592E-3	236.893E-12	1.39240E+0	-226.721E-3
633.500E-3	239.464E-12	1.41809E+0	-242.906E-3	237.523E-12	1.41690E+0	-242.538E-3
637.000E-3	236.736E-12	1.44472E+0	-260.609E-3	237.464E-12	1.43979E+0	-258.323E-3
640.500E-3	237.112E-12	1.46240E+0	-274.138E-3	237.195E-12	1.45837E+0	-271.067E-3
644.000E-3	236.154E-12	1.47453E+0	-284.994E-3	237.657E-12	1.47121E+0	-278.675E-3
647.500E-3	238.326E-12	1.48234E+0	-283.532E-3	239.151E-12	1.47925E+0	-281.004E-3
651.000E-3	242.404E-12	1.48374E+0	-278.884E-3	241.109E-12	1.48501E+0	-280.391E-3
654.500E-3	242.888E-12	1.48819E+0	-277.044E-3	242.982E-12	1.49077E+0	-278.764E-3
658.000E-3	244.670E-12	1.49784E+0	-280.320E-3	244.430E-12	1.49761E+0	-276.358E-3
661.500E-3	245.549E-12	1.50614E+0	-275.127E-3	245.668E-12	1.50488E+0	-271.293E-3
665.000E-3	246.699E-12	1.51277E+0	-264.217E-3	246.846E-12	1.51030E+0	-261.865E-3
668.500E-3	248.704E-12	1.51632E+0	-250.991E-3	247.192E-12	1.51219E+0	-248.086E-3
672.000E-3	248.235E-12	1.51208E+0	-231.957E-3	247.348E-12	1.51018E+0	-232.309E-3
675.500E-3	243.559E-12	1.50599E+0	-213.145E-3	247.634E-12	1.50575E+0	-217.785E-3
679.000E-3	250.732E-12	1.49828E+0	-202.376E-3	248.617E-12	1.50142E+0	-209.226E-3
682.500E-3	249.814E-12	1.49692E+0	-199.807E-3	249.861E-12	1.49920E+0	-210.127E-3
686.000E-3	251.426E-12	1.49912E+0	-216.755E-3	250.959E-12	1.49889E+0	-221.766E-3
689.500E-3	251.138E-12	1.50068E+0	-237.542E-3	251.400E-12	1.49842E+0	-242.451E-3
693.000E-3	251.959E-12	1.49925E+0	-267.866E-3	251.929E-12	1.49591E+0	-265.897E-3
696.500E-3	252.459E-12	1.49052E+0	-299.034E-3	252.399E-12	1.49113E+0	-285.040E-3
700.000E-3	252.906E-12	1.48489E+0	-299.569E-3	252.906E-12	1.48489E+0	-299.569E-3
